vp,EEG1_lateN1_CSRFirst,EEG2_lateN1_CSRFirst,EEG3_lateN1_CSRFirst,EEG4_lateN1_CSRFirst,EEG5_lateN1_CSRFirst,EEG6_lateN1_CSRFirst,EEG7_lateN1_CSRFirst,EEG8_lateN1_CSRFirst,EEG9_lateN1_CSRFirst,EEG10_lateN1_CSRFirst,EEG11_lateN1_CSRFirst,EEG12_lateN1_CSRFirst,EEG13_lateN1_CSRFirst,EEG14_lateN1_CSRFirst,EEG15_lateN1_CSRFirst,EEG16_lateN1_CSRFirst,EEG17_lateN1_CSRFirst,EEG18_lateN1_CSRFirst,EEG19_lateN1_CSRFirst,EEG20_lateN1_CSRFirst,EEG21_lateN1_CSRFirst,EEG22_lateN1_CSRFirst,EEG23_lateN1_CSRFirst,EEG24_lateN1_CSRFirst,EEG25_lateN1_CSRFirst,EEG26_lateN1_CSRFirst,EEG27_lateN1_CSRFirst,EEG28_lateN1_CSRFirst,EEG29_lateN1_CSRFirst,EEG30_lateN1_CSRFirst,EEG31_lateN1_CSRFirst,EEG32_lateN1_CSRFirst,EEG33_lateN1_CSRFirst,EEG34_lateN1_CSRFirst,EEG35_lateN1_CSRFirst,EEG36_lateN1_CSRFirst,EEG37_lateN1_CSRFirst,EEG38_lateN1_CSRFirst,EEG39_lateN1_CSRFirst,EEG40_lateN1_CSRFirst,EEG41_lateN1_CSRFirst,EEG42_lateN1_CSRFirst,EEG43_lateN1_CSRFirst,EEG44_lateN1_CSRFirst,EEG45_lateN1_CSRFirst,EEG46_lateN1_CSRFirst,EEG47_lateN1_CSRFirst,EEG48_lateN1_CSRFirst,EEG49_lateN1_CSRFirst,EEG50_lateN1_CSRFirst,EEG51_lateN1_CSRFirst,EEG52_lateN1_CSRFirst,EEG53_lateN1_CSRFirst,EEG54_lateN1_CSRFirst,EEG55_lateN1_CSRFirst,EEG56_lateN1_CSRFirst,EEG57_lateN1_CSRFirst,EEG58_lateN1_CSRFirst,EEG59_lateN1_CSRFirst,EEG60_lateN1_CSRFirst,EEG61_lateN1_CSRFirst,EEG62_lateN1_CSRFirst,EEG63_lateN1_CSRFirst,EEG64_lateN1_CSRFirst,EEG65_lateN1_CSRFirst,EEG66_lateN1_CSRFirst,EEG67_lateN1_CSRFirst,EEG68_lateN1_CSRFirst,EEG69_lateN1_CSRFirst,EEG70_lateN1_CSRFirst,EEG71_lateN1_CSRFirst,EEG72_lateN1_CSRFirst,EEG73_lateN1_CSRFirst,EEG74_lateN1_CSRFirst,EEG75_lateN1_CSRFirst,EEG76_lateN1_CSRFirst,EEG77_lateN1_CSRFirst,EEG78_lateN1_CSRFirst,EEG79_lateN1_CSRFirst,EEG80_lateN1_CSRFirst,EEG81_lateN1_CSRFirst,EEG82_lateN1_CSRFirst,EEG83_lateN1_CSRFirst,EEG84_lateN1_CSRFirst,EEG85_lateN1_CSRFirst,EEG86_lateN1_CSRFirst,EEG87_lateN1_CSRFirst,EEG88_lateN1_CSRFirst,EEG89_lateN1_CSRFirst,EEG90_lateN1_CSRFirst,EEG91_lateN1_CSRFirst,EEG92_lateN1_CSRFirst,EEG93_lateN1_CSRFirst,EEG94_lateN1_CSRFirst,EEG95_lateN1_CSRFirst,EEG96_lateN1_CSRFirst,EEG97_lateN1_CSRFirst,EEG98_lateN1_CSRFirst,EEG99_lateN1_CSRFirst,EEG100_lateN1_CSRFirst,EEG101_lateN1_CSRFirst,EEG102_lateN1_CSRFirst,EEG103_lateN1_CSRFirst,EEG104_lateN1_CSRFirst,EEG105_lateN1_CSRFirst,EEG106_lateN1_CSRFirst,EEG107_lateN1_CSRFirst,EEG108_lateN1_CSRFirst,EEG109_lateN1_CSRFirst,EEG110_lateN1_CSRFirst,EEG111_lateN1_CSRFirst,EEG112_lateN1_CSRFirst,EEG113_lateN1_CSRFirst,EEG114_lateN1_CSRFirst,EEG115_lateN1_CSRFirst,EEG116_lateN1_CSRFirst,EEG117_lateN1_CSRFirst,EEG118_lateN1_CSRFirst,EEG119_lateN1_CSRFirst,EEG120_lateN1_CSRFirst,EEG121_lateN1_CSRFirst,EEG122_lateN1_CSRFirst,EEG123_lateN1_CSRFirst,EEG124_lateN1_CSRFirst,EEG125_lateN1_CSRFirst,EEG126_lateN1_CSRFirst,EEG127_lateN1_CSRFirst,EEG128_lateN1_CSRFirst,Cz_lateN1_CSRFirst,GFP_lateN1_CSRFirst
2101,0.175643,-0.674185,-1.231756,-1.328976,-0.974113,-1.237373,-0.672873,-1.022374,-0.790812,-0.478816,-0.232402,-0.301906,0.014757,-0.665772,-0.018407,-0.25497,-0.647501,0.049865,0.426122,-0.695361,0.259712,0.203081,-0.500389,-0.405844,0.032518,-0.140395,-1.857261,-0.165468,-0.294584,-0.403068,-0.636797,0.104659,0.368595,0.989833,0.229618,-0.103718,-0.125179,0.54654,0.340909,0.750648,0.184699,0.446643,-0.086387,-0.361814,0.253506,0.643918,0.813027,-0.03825,-0.356918,0.903557,1.810844,1.18147,0.51385,-0.233093,-0.523831,0.135211,0.656228,0.977977,1.947844,1.076486,0.2305,-0.315079,0.679931,0.10046,1.02994,1.08836,0.719974,0.615577,0.349078,0.675645,0.531723,0.018335,0.343173,0.040904,0.257537,0.626686,-0.509706,-0.300365,-0.978417,-0.740939,1.083691,0.472196,-0.322504,0.319593,0.488964,-0.575878,-0.515842,0.657302,0.126767,0.391274,0.615454,0.149827,-0.313239,0.975882,0.103373,0.437052,0.694967,0.487487,0.3984,0.113923,0.718731,0.125458,-0.023719,-0.507278,-0.207593,-1.68971,0.441651,0.32867,0.50481,-0.791356,-0.974651,-1.442809,1.128791,0.176396,0.96842,-1.368795,-0.180905,-1.05783,-0.551497,0.198613,-0.275288,-0.314391,-1.307001,-2.309366,1.270117,-0.083734,0.083011,-0.089207,-1.598709,1.32882
2102,1.197197,3.038247,2.822054,2.502463,2.029051,0.227894,0.191381,5.887185,4.681101,2.886503,2.151529,1.799453,0.880389,5.976584,4.463763,3.406964,5.443654,3.747663,2.843543,1.834084,5.728794,4.116032,3.773485,2.463503,6.912344,3.265933,2.172131,1.700047,2.004987,1.588344,1.02786,1.723681,1.290142,0.912905,1.348956,1.747894,1.511266,-0.068549,-0.390812,0.806626,1.099281,0.90144,-1.105687,-0.765662,-0.897162,-0.243933,0.42129,-2.782796,-1.568448,-1.337086,-0.002911,0.53284,0.610801,1.095311,0.610859,-2.753005,-1.919353,-1.354487,-0.814275,0.169385,0.188434,-0.554747,-2.573036,-2.425089,-2.168514,-1.005027,-0.911617,-2.222427,-2.60875,-2.056944,-1.59261,-0.735902,-2.906222,-2.754745,-2.184088,-1.724545,-1.217228,-1.102054,0.280495,1.343583,-3.194666,-2.852435,-2.593229,-1.960935,-1.816156,-0.583459,-0.03853,-3.241646,-3.414272,-3.907693,-2.662663,-1.848902,-0.580328,-3.76535,-4.407455,-3.526486,-2.038512,-1.192302,-3.227057,-4.200302,-2.953784,-1.240936,-0.513448,-0.051687,0.625104,0.968087,-3.179759,-2.713187,-0.915667,0.185222,1.302046,2.172751,-1.684087,-2.376975,-1.64722,0.504207,1.202338,1.732214,-1.600145,-1.483298,-0.679616,0.909115,2.14235,1.45365,-0.398247,-1.523887,-1.787478,-0.52775,0.520821,2.471395
2104,0.125386,9.274547,7.926987,6.62545,-1.477543,-1.182566,-1.934398,-1.165774,9.148492,1.610887,-1.366865,-2.106591,-2.212693,0.329572,1.01401,0.410421,1.517374,1.149472,4.172529,3.823242,-0.041713,2.243037,4.007946,6.399273,0.706548,2.494968,4.228273,9.306719,2.474805,-0.155057,-0.900575,-0.022048,0.845507,4.499365,0.787845,0.568953,0.632449,-1.027921,2.216836,1.853117,1.941536,-0.709689,-1.304307,-2.054987,-0.507621,5.202262,1.732554,-3.59669,-1.13428,-2.7147,-1.275597,-0.65626,-0.113862,0.112639,0.006625,-5.054814,-5.586626,-4.030271,-1.15839,-0.238243,0.741818,-0.071273,-6.833579,-7.835277,-3.881143,-1.17886,0.782376,-6.091026,-5.605375,-4.132062,-0.482307,-0.07148,-6.196289,-3.71367,-2.227057,-0.634796,0.440077,1.259575,1.392933,-0.073925,-5.569692,-4.735347,-0.896785,-0.510158,1.518935,1.741644,0.850295,-3.986208,-3.009237,-1.216787,-0.676967,1.251147,0.944276,-3.929039,-2.683707,-1.824482,-0.063616,1.317387,-3.796712,-6.048399,-1.667272,1.169071,2.695481,1.04432,0.078951,-1.480503,-6.137456,-0.393052,6.230465,1.761603,-0.337236,-0.690842,-1.795167,-1.378128,2.582224,1.116575,3.352748,2.770464,-1.817383,-1.265332,-0.249024,1.733682,7.725076,5.620941,-0.844794,0.553317,0.494512,-0.40444,-0.393536,3.431346
2105,-4.671449,-2.082265,-1.418802,-0.465427,-0.449868,-0.255462,2.113313,-7.286328,-3.57961,-3.248205,-1.919705,-2.533607,0.421059,-4.420565,-2.489525,-3.615128,-3.958943,-2.228527,-2.231604,-0.933273,-3.688972,-4.185129,-1.96168,-2.380863,-5.267465,-3.831251,-2.427289,-1.102956,0.504222,2.718361,3.821642,-5.609738,-3.400833,-2.331655,0.08678,2.292936,4.631383,-5.675022,-3.455992,0.858033,2.036986,4.145995,-6.231988,-6.756998,-1.135826,1.784844,3.420777,-6.689231,-5.817999,0.603158,3.214079,4.607497,6.266181,6.078519,4.428483,-4.327129,-1.82469,2.315713,4.931265,6.30256,6.690855,5.631637,-2.824602,-0.791516,3.591173,6.520499,6.01271,-2.87308,-1.384762,2.396424,4.373444,5.06719,-3.447954,-1.756173,2.276635,4.48045,5.929986,6.934637,5.790977,3.915299,-3.111605,-0.493797,1.811327,4.737247,5.914152,6.387817,4.287807,-4.512575,-1.149778,2.722066,6.058048,5.940554,5.305207,-3.919121,-0.502203,3.16429,6.6887,5.583673,-5.082726,-1.365718,1.390036,2.511759,3.768982,3.742852,3.300094,1.722018,-6.378045,0.454716,0.842791,2.52163,2.956099,1.566278,-6.750593,-5.895546,-2.705415,-1.101811,0.43426,1.025858,-6.642226,-6.28992,-4.550655,-3.002364,-0.924223,-0.244309,-4.721529,-5.176802,-5.672844,-5.670088,2.79902,4.056531
2106,0.624351,0.493472,3.31375,3.780196,3.62414,3.866716,3.76845,1.62916,3.026018,3.968537,4.344505,4.493289,3.975866,2.966886,3.692418,4.211812,3.302453,3.853889,4.203886,4.247957,3.313254,3.639742,4.169001,3.348212,2.527128,3.679477,2.140507,3.250727,4.195895,3.569861,3.290461,2.137975,2.869676,3.047293,2.84515,3.488132,2.670709,1.50878,1.155081,2.321879,2.76686,2.590765,0.071421,1.086475,-0.258344,2.473204,2.368156,-0.969965,-1.753107,-1.067743,1.675572,2.526167,2.103523,2.423302,2.280171,-4.216022,-4.253188,-1.593462,0.643159,1.411736,2.415129,2.13348,-5.553292,-6.458275,-1.918376,0.83289,1.171215,-4.30267,-3.591234,-0.684642,0.752406,0.805911,-3.438367,-2.176445,-0.756883,-0.155285,0.227702,0.396777,1.212322,2.298653,-3.556051,-3.468385,-3.670843,-2.430663,-1.274869,-0.324976,1.483745,-5.165241,-6.703182,-7.347734,-4.759887,-2.418119,-1.003838,-6.755442,-12.243797,-8.678458,-4.320095,-1.81591,-10.071868,-13.302101,-7.380313,-3.225388,-1.587114,0.458686,2.375524,3.158939,-8.874316,-7.055567,-1.802954,0.261479,2.197363,3.448138,-4.005645,-2.650693,-3.358405,-0.452616,1.650471,3.132485,-2.237262,-1.966165,-1.31925,-0.630555,0.870723,2.489488,-0.855249,0.598155,0.80869,0.847617,2.855052,3.840475
2108,3.227788,6.68741,6.877267,6.505313,4.675835,2.668711,1.335574,8.631998,8.177207,7.21934,5.55722,4.117857,3.172918,9.974038,6.615703,6.730027,4.582996,5.671463,4.84297,4.374886,7.331322,7.658793,6.430902,5.20336,7.745578,5.705869,5.543535,4.416004,3.765326,2.447753,1.122799,3.229686,2.244272,2.910455,3.018826,2.526026,1.169388,1.1433,1.032802,0.610359,0.825221,0.459634,-0.071198,0.410677,-4.404941,-2.590764,-1.352633,-1.723235,-2.104126,-8.529814,-4.477129,-1.728557,0.004815,0.641646,0.948337,-4.572494,-8.411426,-11.930549,-6.318012,-1.816266,-0.087768,0.74541,-6.582161,-10.46551,-11.566385,-5.373464,-0.350954,-6.889577,-9.722273,-8.76141,-3.410688,-0.605269,-6.904355,-7.794318,-5.855717,-2.426066,-0.316675,1.139195,1.800836,1.324785,-7.292439,-6.651386,-6.64622,-2.88497,-0.782707,1.229749,2.293865,-6.889399,-6.527017,-7.980217,-4.652755,-0.003896,1.655071,-6.006897,-8.163486,-7.66575,-2.796594,0.097282,-5.651377,-7.871426,-7.646016,-0.927804,1.90757,3.348638,2.999448,1.854931,-2.979803,-4.460411,0.691124,3.856457,4.743967,3.783399,-1.808899,-0.013245,-0.655176,3.220462,4.724008,5.78114,-0.61654,-0.690497,1.873244,3.477621,5.355759,6.108997,0.403037,1.188504,0.137838,-1.126982,0.600095,4.980465
2109,4.331674,4.735342,4.582035,4.082118,3.952956,3.858919,4.299462,4.598636,4.173642,3.875936,3.429358,4.278069,3.996563,4.019423,3.906403,3.500818,3.760817,3.744424,4.371486,3.791341,3.264686,4.401652,3.861726,3.345619,2.33677,2.595826,3.462567,3.573507,3.764414,3.068165,3.618417,0.661599,1.83547,2.623905,3.10195,2.69865,3.566801,0.763616,1.211412,1.262993,1.855477,0.988356,0.456775,-0.078056,-3.174783,-0.499705,0.412014,-0.569504,-1.293676,-5.825064,-2.828547,-0.824042,1.025892,1.919636,3.233892,-6.496437,-8.738113,-7.176458,-3.201004,-1.935542,0.258957,0.179805,-8.243582,-9.376487,-6.98831,-5.196981,-2.764643,-8.088706,-8.727235,-6.275662,-4.665945,-3.815528,-7.956954,-8.065858,-6.065184,-4.388315,-2.142072,0.600669,2.707747,3.687382,-7.066583,-7.310067,-6.197361,-3.909128,-0.592642,1.797515,3.176424,-7.002543,-6.621479,-5.477417,-2.961952,0.675881,2.154213,-6.79112,-7.714132,-4.722122,-0.682272,0.75501,-6.990771,-6.504267,-3.232182,0.616531,1.809843,2.928515,3.569612,4.185708,-5.612077,-1.581837,1.843849,3.1416,3.499273,4.199745,-1.746925,0.386798,2.267203,3.379278,3.777276,3.252996,-0.542151,0.638241,2.671532,4.169405,4.241466,4.635223,3.230854,2.456169,0.74412,0.8465,3.974883,4.248488
2110,-0.893086,1.222005,2.153831,2.980819,4.120733,3.834178,3.643796,1.455695,1.518914,2.475497,3.527417,4.071941,4.518356,1.152318,1.94794,2.623771,0.695522,2.709679,3.523939,3.214892,1.097029,1.714511,2.235341,2.653497,0.924027,-0.731601,1.320469,2.36416,3.270274,3.422501,2.976491,-2.442907,-1.230217,0.527819,1.431952,1.470256,2.106575,-3.054823,-1.246209,-0.281988,0.424714,0.52101,-4.183491,-4.101817,-2.052778,-0.664243,0.25612,-5.967022,-5.547014,-3.116926,-0.749607,-0.224416,1.093665,2.101448,3.238078,-7.339124,-5.622151,-2.53326,-1.196824,1.173266,1.62644,2.05188,-7.40357,-5.288739,-2.532293,-0.105323,1.034896,-6.424369,-4.926799,-0.96131,0.510556,1.488102,-5.859976,-4.222477,-0.762799,1.134019,2.255386,2.826385,3.258563,3.845924,-6.172098,-4.820729,-0.759091,1.764369,3.060037,3.451042,4.419002,-7.305136,-4.855502,-0.870042,1.576313,3.383421,4.182902,-6.209289,-4.702127,-1.075408,1.543503,2.874326,-6.429258,-4.542453,-1.274403,1.673834,3.028582,3.730788,3.892236,3.753504,-7.063923,-1.009239,1.513939,3.183567,3.895258,4.059979,-5.057088,-2.944726,-1.043478,1.483716,2.476213,3.513258,-2.934557,-3.421185,-1.245902,0.0625,1.411875,2.317989,-1.137786,-2.952034,-4.359677,-3.91968,3.773223,3.517113
2211,1.804891,2.266269,3.277786,2.973309,2.604703,2.078646,1.431371,-1.190499,2.033256,2.528452,2.154633,2.148708,1.716322,0.672164,1.88894,2.068567,0.792387,1.848472,1.737501,1.811662,0.182965,1.736034,1.454401,1.266759,0.023222,0.448034,0.595236,0.345366,0.299903,-0.560145,0.939997,0.435895,-0.580904,-0.270372,-0.212638,-0.260251,0.410194,-0.573496,-1.585926,-0.860254,-0.648301,-0.614444,-1.246819,-1.186179,-1.723694,-2.145471,-1.835665,-0.862826,-0.852349,-3.676387,-3.043,-2.119223,-1.30259,0.070857,1.927406,-3.064244,-2.700728,-3.87242,-4.01519,-2.079687,-0.807587,-0.433975,-3.679156,-4.398629,-7.278794,-3.150931,-1.469187,-4.761292,-6.384626,-5.368692,-2.752495,-1.346069,-4.828142,-4.228224,-3.838738,-1.167668,0.084182,1.76921,3.440932,3.540076,-4.149348,-1.740215,-2.504765,-0.304278,1.36977,2.823969,3.702105,-3.690497,-2.189348,-0.460211,1.018222,3.267737,2.699329,-3.348561,-0.365718,0.192001,1.704192,2.949086,-4.010074,-1.783279,0.388862,0.750949,2.128697,3.720802,3.666907,2.668359,-0.722153,0.325578,1.481815,3.732175,4.352921,2.544891,-1.360746,0.239594,0.640451,1.72202,3.684679,3.141471,-0.511571,-0.132183,1.250675,2.538244,3.050924,3.339148,0.828268,1.104821,0.415778,-0.212739,2.210451,2.538474
2212,1.531313,3.621807,5.46843,4.191669,3.537763,5.062178,2.588161,11.494425,8.785357,6.75403,4.385854,3.905621,2.340189,10.67808,8.384851,6.500888,10.060105,6.329926,4.347221,4.145498,11.098576,8.639039,5.648466,2.801008,6.729056,6.939863,3.341617,1.600226,1.66662,1.894512,2.197868,1.881019,1.801491,1.265123,0.854654,0.799157,1.212129,0.175137,-0.292863,-0.304978,-0.295263,-0.531273,-1.467044,-1.080855,-2.49366,-1.199619,-1.703336,-1.384337,-1.804809,-3.758847,-3.352397,-2.409472,-0.130191,1.873541,2.220804,-4.422743,-5.73286,-5.702733,-3.524544,-2.300911,-0.65975,-1.022619,-6.267331,-8.458295,-5.87646,-3.290546,-1.60274,-7.096611,-6.450883,-5.941852,-3.31864,-2.110569,-6.886307,-5.683081,-5.51941,-3.15477,-1.310657,0.914127,1.929579,2.073862,-6.19698,-5.675433,-5.100405,-3.190425,-1.534053,1.014564,1.980574,-5.805263,-6.317866,-4.362098,-3.354307,-1.830719,0.833247,-6.521016,-6.509926,-5.214576,-2.552771,-0.529176,-6.024301,-6.223066,-5.237146,-1.089178,0.629843,2.13366,2.174619,1.785138,-4.900535,-3.333628,0.359914,1.486835,2.191113,1.446628,-2.440921,-0.84664,-1.33386,1.27566,2.315248,3.038901,-1.288381,-1.544582,0.214998,1.500973,2.900824,3.629559,-0.09034,2.665266,-1.492388,-0.190125,2.024951,4.302521
2213,-1.532815,2.008228,3.915035,4.110461,5.151371,5.01972,5.837377,3.727707,3.838128,4.422344,4.697616,5.495119,4.899273,1.868519,3.978437,4.404772,1.748445,4.308349,5.123323,4.803125,3.65751,3.749858,2.409654,5.182742,3.455227,3.476962,3.365212,4.034922,3.042571,4.899307,4.614384,0.677531,2.650475,3.45398,3.139779,3.203868,3.530465,-2.192044,1.645691,1.859691,1.860718,2.122335,-0.417912,-0.660837,-0.231717,0.901965,1.081285,-2.095618,-1.948591,-0.8056,-1.323069,-0.47994,1.063481,4.013311,4.094194,0.512683,-0.939657,-4.099777,-1.293603,0.188495,0.566156,-0.197068,-0.777902,-2.140307,-2.135612,-1.353941,-1.407545,-2.673148,-3.090636,-3.663379,-0.70249,-1.703609,-3.88809,-4.653141,-3.642687,-1.108646,-1.730801,-0.314626,1.874417,4.00005,-5.419042,-4.388812,-4.250282,-4.109598,-3.718294,-1.876427,2.468743,-5.255666,-5.069582,-5.980925,-5.425768,-5.510675,-1.934903,-5.788719,-7.175991,-6.232237,-6.060563,-3.744592,-5.436391,-5.199984,-5.177872,-3.405744,-2.315402,1.536607,2.100815,4.770705,-4.652501,-4.705919,-2.461266,0.381926,2.775873,4.46338,-3.61251,-2.839547,-2.90343,-1.372735,1.263985,3.53535,-3.876814,-3.856892,-3.300753,-1.067989,3.008183,3.404552,-3.148201,-2.161154,-0.913859,-1.517822,5.67727,3.715392
2214,-1.17796,-0.085777,0.742202,1.613333,3.026847,4.379222,4.982626,-0.108282,1.159832,1.916721,2.95811,4.093507,4.291159,1.484531,2.237179,2.533594,0.645142,3.336424,4.139401,4.35206,1.461367,2.595095,3.434571,4.424673,1.166634,1.910043,2.369212,3.172551,4.065612,4.406133,4.873124,0.014381,0.602214,2.054363,2.684646,3.362699,4.446146,-0.581222,-0.279347,1.229753,2.889111,3.199408,-0.956188,-1.448919,-0.155971,0.438672,1.847787,-1.379329,-1.589549,-1.726784,-0.145194,1.102924,3.049288,4.529685,4.53079,-1.101931,-1.607988,-4.33798,-0.045848,1.442086,3.10619,1.932962,-1.697513,-2.162471,-2.100163,-0.882967,1.037416,-2.165375,-3.538002,-3.897286,-0.459584,0.45393,-3.664242,-3.85675,-4.230597,-2.48807,-0.269672,2.589573,4.185571,4.123117,-3.891621,-4.886047,-5.279178,-3.644877,-0.211889,2.35692,4.322369,-4.180302,-4.682902,-6.472189,-3.880381,-0.28825,1.746565,-4.735297,-7.145964,-6.659017,-2.94359,-0.961817,-5.398732,-6.784046,-7.33515,-2.306074,-0.256913,2.290518,3.800315,4.364372,-4.834116,-5.312843,-2.212507,0.195282,1.892033,3.055084,-3.246567,-3.333534,-3.567208,-1.404057,0.034071,1.184474,-1.784923,-2.020014,-1.565132,-1.672685,-0.963262,0.736489,-1.995628,-1.455616,-1.265085,-0.755282,4.871544,3.188492
2215,1.218355,2.363384,2.3145,1.165056,0.956906,1.103345,1.56502,2.97921,3.011501,1.827771,1.2587,1.020085,1.393624,4.235034,3.528143,2.084407,3.101147,2.22055,1.798262,1.891496,3.410868,2.806436,1.904699,1.313273,2.375343,2.526948,1.201298,1.162258,1.545275,1.496243,1.426674,0.53908,0.783845,0.667513,1.102699,1.601639,1.131269,0.30505,0.296557,-0.274769,0.003169,-0.181693,-0.307401,-0.637309,-0.619989,-0.949556,-1.004323,-0.386103,-0.292603,-1.724023,-1.538026,-1.752762,-0.446057,-0.31473,0.234095,-1.683645,-2.324515,-2.068286,-2.576957,-2.201705,-1.799035,-3.020807,-2.28732,-3.134389,-2.177687,-3.556468,-3.807625,-2.594639,-2.774815,-3.838058,-5.146094,-4.717034,-2.588125,-3.140093,-3.948376,-4.108105,-2.592129,-0.451839,0.684759,0.827178,-2.948702,-3.708684,-2.91242,-1.622322,-0.15212,1.251103,0.822078,-2.986378,-2.505949,-1.082169,-0.15503,1.091538,1.122052,-1.906176,-1.59446,-0.231625,0.362294,1.011641,-2.424895,-0.839496,0.465048,1.019542,1.537666,1.357107,0.912871,1.328554,-0.778097,0.520032,0.40768,1.582454,1.110371,1.150491,-1.027219,-0.691514,0.709,1.125114,1.301217,0.95169,1.109195,0.233209,0.958587,0.939985,1.478412,1.329836,1.273734,2.435949,1.366437,0.321028,1.565766,2.693901
2216,1.414393,5.19172,6.444522,6.388635,6.096424,4.499838,4.196685,8.005713,6.799378,5.652763,4.575284,4.577278,3.190816,5.734947,5.624375,4.864289,3.595588,4.517097,4.059802,3.881227,4.661645,6.256452,3.625242,3.313719,2.709751,2.188204,2.722862,2.767327,3.203005,2.725072,2.614231,0.670262,0.219628,0.462478,1.674573,1.530532,1.451349,-1.497135,-1.516275,-0.668013,-0.728066,-0.602534,-1.04203,-3.430192,-2.855157,-3.005364,-2.539495,-3.262823,-2.44981,-5.975365,-4.851172,-2.583608,0.745612,1.846178,4.112679,-2.073611,-3.879642,-8.816495,-6.735481,-2.473908,0.959293,0.165813,-6.211622,-5.892222,-8.218494,-6.283459,-2.451926,-6.457617,-6.853288,-8.127916,-5.014421,-2.832516,-5.887311,-5.440392,-5.708296,-4.385852,-1.709577,1.641886,2.918865,4.172116,-4.436298,-5.466552,-5.336815,-3.898418,-0.595751,2.053267,3.354962,-4.840189,-6.01912,-5.362871,-1.927743,0.234818,1.440614,-4.516299,-5.378325,-4.181821,-1.659814,-0.495382,-3.563227,-3.483186,-3.094774,-0.745544,0.739318,3.632359,4.637419,5.260388,-2.152591,-1.273501,0.159334,2.541146,3.394654,5.558304,-1.216275,-1.372566,-0.407629,1.875814,4.993117,6.227641,-0.962211,-0.453596,0.178411,1.057963,3.65657,6.918976,-0.47299,-2.139657,-2.210691,-1.174168,4.71446,4.196016
2217,-1.024435,-0.498312,0.641403,2.396587,3.562806,3.644145,2.455701,-0.816888,1.148748,2.180737,3.805002,3.466635,3.019378,1.928125,2.932778,2.93174,3.285683,3.81992,3.881062,3.093672,2.985238,3.716005,3.980474,3.313212,5.413615,3.950561,3.444035,2.34445,2.432941,2.294505,2.552532,3.589066,1.93569,1.54946,1.050546,1.252762,1.461185,2.173955,0.709363,0.131675,0.175316,0.147576,0.880968,-0.406734,-1.910266,-0.332053,-0.88387,1.865096,-0.573669,-1.864081,-1.146225,-0.944236,0.747401,1.164106,2.718641,-0.047374,-0.351153,-2.11861,-3.839794,-0.8352,-0.063941,0.761568,-1.037084,-1.814059,-4.725319,-2.170317,-0.815744,-2.138236,-3.715986,-1.728548,-1.615662,-0.534392,-2.892289,-2.386765,-1.641655,-1.520613,0.155695,1.834106,2.904005,2.949663,-3.056479,-2.022876,-2.120528,-1.086697,-0.526623,1.738749,0.467279,-2.779007,-3.399424,-3.690212,-2.139275,-1.145188,-0.937533,-3.074999,-4.080963,-4.414261,-2.231174,-1.800954,-3.431946,-4.498625,-6.410044,-2.912778,-1.75428,-0.916135,0.867029,3.540134,-3.118657,-3.347136,-2.885426,-1.400714,-0.181024,2.856576,-1.993023,-2.281736,-2.261872,-2.438379,-1.123713,1.026093,-1.219342,-1.585697,-1.634746,-1.782323,-1.058064,-0.336782,-1.208594,0.032519,2.424652,2.907542,4.040625,2.666052
2218,2.190982,4.242675,4.98876,5.263999,4.751966,3.684692,2.218384,6.845365,6.223056,5.719348,5.547525,3.749912,2.975447,6.699956,6.482065,5.505717,5.280389,4.239458,4.342561,3.047707,6.714187,6.195888,3.820047,4.029732,8.141761,4.226816,3.289287,2.730669,0.221399,1.363148,1.363917,1.088445,0.224188,0.281372,0.896728,-0.329452,0.737138,-0.678521,-2.058192,-1.506741,-0.367876,-1.310704,0.182095,-1.048648,-3.095047,-2.708634,-2.048873,-2.358502,-0.93492,-4.371528,-3.075987,-2.207855,-0.732785,0.344026,1.822052,-3.137299,-3.68547,-5.536854,-4.979829,-3.088654,-1.11826,-1.611934,-3.424775,-4.295298,-6.043778,-5.647436,-3.846243,-4.137099,-4.995181,-4.368351,-5.566072,-5.005395,-4.041688,-4.897435,-6.386679,-3.921268,-2.843845,-0.185329,1.365743,2.975919,-4.96999,-4.260485,-4.573297,-3.541802,-1.147639,0.778043,3.503755,-4.86802,-4.369711,-5.003452,-2.814734,-0.535327,1.763036,-4.59358,-3.770474,-4.052648,-1.566251,-0.127968,-3.991382,-4.272614,-4.029004,-0.437602,2.04536,3.325884,3.321176,3.726783,-3.318099,-2.813333,0.269575,2.505462,3.659845,4.605085,-2.145306,0.717476,-0.481252,1.59191,3.253983,3.478006,-2.412472,-0.157852,-0.472775,1.793491,2.323001,4.145276,0.413711,0.865917,0.274455,-0.376474,2.326219,3.650874
2219,-0.229963,0.685103,2.291866,3.651514,4.330559,5.605174,5.77378,0.134727,2.284532,2.775167,2.933371,4.642536,5.652596,1.177724,1.735298,3.762756,1.127473,3.746061,4.977492,4.840046,0.762968,2.237773,3.549424,4.323531,0.655133,1.175938,3.01271,4.204855,4.302561,3.451196,4.412975,-0.94416,-0.275226,1.972899,1.267697,1.771003,3.91731,-1.058774,-1.988594,-0.769366,-0.464111,-0.227311,-1.986434,-2.3624,-2.517834,-1.683649,-0.603862,-3.486971,-1.726052,-2.705323,-2.115937,-0.519392,1.178232,2.803873,3.090934,-2.93882,-3.576735,-6.184278,-2.766166,-0.916286,0.241419,0.611077,-4.473991,-7.224052,-5.984762,-3.395817,-2.069798,-5.713857,-6.239912,-5.042439,-3.489801,-1.595373,-5.740661,-5.502615,-4.700225,-2.248708,0.717659,3.046832,2.555426,4.021513,-5.103368,-4.909965,-3.721352,0.356568,1.879514,1.580261,3.469802,-5.164176,-3.915155,-3.286368,0.054732,0.269448,0.723651,-3.347309,-3.637965,-2.182198,-0.591025,-0.162325,-0.930387,-1.668266,-2.28595,-0.305791,0.84864,2.150496,3.14112,4.388031,-1.884747,-0.457404,0.265459,1.207416,3.019551,4.74532,-2.95699,-1.889675,-0.40088,0.477045,1.741452,2.332043,-2.459945,-2.399684,-0.034389,-0.215913,2.267441,2.460492,-1.862997,-0.401135,-0.749338,-1.269365,4.87253,3.529632
2222,1.114556,1.10357,1.037592,0.709854,-0.581051,-0.684443,-0.291947,0.831626,-0.126407,-0.341307,-0.654966,0.119565,-0.437839,-0.095725,-0.762554,-1.910949,0.243805,-0.898529,0.510646,0.773401,-0.186227,-0.122938,1.184645,1.339371,0.903277,1.720374,1.642118,1.524193,0.718118,0.711393,0.458252,1.874747,1.719166,1.59492,1.119959,1.555635,0.415896,2.016493,1.684141,1.697439,1.564177,1.371398,1.723748,1.480919,0.32849,0.95533,0.629321,1.625306,1.273191,-0.249345,0.948765,0.499446,0.520171,0.080599,-0.226028,-0.545022,-0.985004,-0.211305,0.91594,0.802639,0.274597,-0.192902,-1.195843,-2.209688,0.91863,1.120552,0.542135,-0.973998,-0.259012,0.708816,0.635861,-0.365202,-0.519871,0.213082,0.151373,0.107954,-0.185559,-0.205876,-0.678144,-0.548559,0.106858,-0.224997,-1.361971,-1.496266,-0.508076,-0.811133,-0.397018,0.080102,-2.222171,-3.355824,-2.568627,-1.606593,-1.155032,-1.803435,-4.300539,-4.652884,-3.384341,-1.130471,-2.555938,-5.576557,-5.191569,-1.558746,0.066971,-0.003241,0.021817,-0.587229,-1.924537,-2.526331,0.510965,0.708902,0.360285,-0.105454,0.421309,0.539371,-1.041494,0.998119,1.283025,0.629599,1.10729,0.988104,1.162849,0.171966,1.010061,0.605725,1.377295,3.242335,1.554557,2.303098,-0.271078,1.603036