File,EEG 1-bc_avg_c,EEG 2-bc_avg_c,EEG 3-bc_avg_c,EEG 4-bc_avg_c,EEG 5-bc_avg_c,EEG 6-bc_avg_c,EEG 7-bc_avg_c,EEG 8-bc_avg_c,EEG 9-bc_avg_c,EEG 10-bc_avg_c,EEG 11-bc_avg_c,EEG 12-bc_avg_c,EEG 13-bc_avg_c,EEG 14-bc_avg_c,EEG 15-bc_avg_c,EEG 16-bc_avg_c,EEG 17-bc_avg_c,EEG 18-bc_avg_c,EEG 19-bc_avg_c,EEG 20-bc_avg_c,EEG 21-bc_avg_c,EEG 22-bc_avg_c,EEG 23-bc_avg_c,EEG 24-bc_avg_c,EEG 25-bc_avg_c,EEG 26-bc_avg_c,EEG 27-bc_avg_c,EEG 28-bc_avg_c,EEG 29-bc_avg_c,EEG 30-bc_avg_c,EEG 31-bc_avg_c,EEG 32-bc_avg_c,EEG 33-bc_avg_c,EEG 34-bc_avg_c,EEG 35-bc_avg_c,EEG 36-bc_avg_c,EEG 37-bc_avg_c,EEG 38-bc_avg_c,EEG 39-bc_avg_c,EEG 40-bc_avg_c,EEG 41-bc_avg_c,EEG 42-bc_avg_c,EEG 43-bc_avg_c,EEG 44-bc_avg_c,EEG 45-bc_avg_c,EEG 46-bc_avg_c,EEG 47-bc_avg_c,EEG 48-bc_avg_c,EEG 49-bc_avg_c,EEG 50-bc_avg_c,EEG 51-bc_avg_c,EEG 52-bc_avg_c,EEG 53-bc_avg_c,EEG 54-bc_avg_c,EEG 55-bc_avg_c,EEG 56-bc_avg_c,EEG 57-bc_avg_c,EEG 58-bc_avg_c,EEG 59-bc_avg_c,EEG 60-bc_avg_c,EEG 61-bc_avg_c,EEG 62-bc_avg_c,EEG 63-bc_avg_c,EEG 64-bc_avg_c,EEG 65-bc_avg_c,EEG 66-bc_avg_c,EEG 67-bc_avg_c,EEG 68-bc_avg_c,EEG 69-bc_avg_c,EEG 70-bc_avg_c,EEG 71-bc_avg_c,EEG 72-bc_avg_c,EEG 73-bc_avg_c,EEG 74-bc_avg_c,EEG 75-bc_avg_c,EEG 76-bc_avg_c,EEG 77-bc_avg_c,EEG 78-bc_avg_c,EEG 79-bc_avg_c,EEG 80-bc_avg_c,EEG 81-bc_avg_c,EEG 82-bc_avg_c,EEG 83-bc_avg_c,EEG 84-bc_avg_c,EEG 85-bc_avg_c,EEG 86-bc_avg_c,EEG 87-bc_avg_c,EEG 88-bc_avg_c,EEG 89-bc_avg_c,EEG 90-bc_avg_c,EEG 91-bc_avg_c,EEG 92-bc_avg_c,EEG 93-bc_avg_c,EEG 94-bc_avg_c,EEG 95-bc_avg_c,EEG 96-bc_avg_c,EEG 97-bc_avg_c,EEG 98-bc_avg_c,EEG 99-bc_avg_c,EEG 100-bc_avg_c,EEG 101-bc_avg_c,EEG 102-bc_avg_c,EEG 103-bc_avg_c,EEG 104-bc_avg_c,EEG 105-bc_avg_c,EEG 106-bc_avg_c,EEG 107-bc_avg_c,EEG 108-bc_avg_c,EEG 109-bc_avg_c,EEG 110-bc_avg_c,EEG 111-bc_avg_c,EEG 112-bc_avg_c,EEG 113-bc_avg_c,EEG 114-bc_avg_c,EEG 115-bc_avg_c,EEG 116-bc_avg_c,EEG 117-bc_avg_c,EEG 118-bc_avg_c,EEG 119-bc_avg_c,EEG 120-bc_avg_c,EEG 121-bc_avg_c,EEG 122-bc_avg_c,EEG 123-bc_avg_c,EEG 124-bc_avg_c,EEG 125-bc_avg_c,EEG 126-bc_avg_c,EEG 127-bc_avg_c,EEG 128-bc_avg_c,Cz-bc_avg_c
1b_a3001,0.189493,-0.878625,-2.248661,-1.709329,-1.702238,-1.308235,-0.471624,0.721783,-1.787374,-2.339571,-1.399715,-1.521056,0.177604,-0.860022,-1.299359,-1.990719,-0.090951,-2.050653,-0.612959,0.381695,-0.302522,-0.735905,-1.419704,0.623213,0.824454,0.136705,0.624287,0.794137,0.750535,0.025491,-0.282231,1.000702,1.393187,0.397208,0.440548,0.032122,-0.209011,1.124342,0.699592,0.334808,0.797902,-0.011017,0.620425,1.087465,0.314072,0.182231,0.143049,0.656969,3.970881,0.160856,0.52519,0.655471,0.805447,-0.723598,-0.134568,0.100695,0.094244,0.11276,0.034067,-0.208934,-0.380387,0.012616,-0.207657,0.010632,0.274762,0.552447,0.169643,-0.390273,-0.186901,0.342416,0.964396,0.375932,1.058209,1.222157,0.638096,0.574342,0.160423,0.081269,-0.201052,-0.573785,0.436205,0.103261,0.387883,0.43726,0.894655,-0.202523,-0.584626,0.06401,0.45945,0.413455,1.49335,0.38425,-0.06608,0.894238,0.623475,1.549559,0.450271,-0.194143,1.593858,0.707561,0.459607,0.211683,-0.821979,-0.73631,-0.528042,-0.466741,0.118089,0.176431,-0.83339,-0.680437,-0.650912,-0.769245,0.634279,0.203482,-0.084385,-0.655487,-1.222165,-1.65176,0.441268,0.209706,-0.005701,-0.805539,-1.801644,-2.233362,0.204804,0.862158,0.508587,1.41747,-0.478163
1b_a3009,4.612317,4.207327,4.30266,4.158769,3.496748,4.557796,4.664016,6.573414,6.377037,6.872834,5.988594,5.192603,3.510394,7.781388,6.415406,6.67607,7.540391,5.506274,4.202652,2.988241,7.528172,6.355241,4.182544,2.953028,7.55787,5.354132,1.886238,1.211584,1.357206,1.25004,2.980493,2.955539,0.728173,0.455182,0.557826,0.92564,2.679622,1.277948,-0.195513,0.276638,0.297413,-0.786288,0.672615,0.809484,-1.555221,-1.044071,-0.96505,-2.005501,-2.594178,-3.076746,-2.325819,-2.309705,-0.134915,-0.758877,-0.14814,-1.748238,-3.990898,-4.760544,-3.913612,-1.538809,0.152221,-2.122176,-15.19475,-7.703828,-4.16483,-3.378461,-2.15544,-3.95834,-3.864569,0.879375,-3.367718,-3.380072,-4.418765,-4.555219,-5.553885,-5.351765,-4.761031,-4.299476,-1.766275,1.263903,-6.321596,-6.302848,-8.418643,-6.176557,-4.085198,-3.552957,0.031593,-10.05414,-8.12195,-6.362586,-5.421699,-3.737827,-0.824889,-6.919689,-6.999436,-5.925073,-3.072984,-1.24285,-2.93374,-2.865499,-2.112198,-0.764781,-0.360021,0.249824,1.514181,2.96578,1.41224,0.480213,1.072308,1.077964,2.06775,3.561325,1.882968,2.712703,2.494014,2.305954,2.567517,2.797068,1.476004,2.292886,2.516682,2.667207,3.247293,2.802189,2.862376,1.948017,1.350669,1.55713,2.33898
1b_a3010,-0.023128,2.185154,1.957063,2.277432,2.693598,2.05721,2.167914,0.977983,1.227271,2.455046,1.792343,2.159679,2.016275,0.572298,0.543651,1.251325,-0.836473,0.709384,0.784836,0.978033,-0.391756,0.17382,-0.104815,1.027583,-1.079339,-1.28154,0.7606,1.391969,1.209483,1.438287,2.552161,-2.375518,-0.596263,0.657552,2.40949,2.574274,2.884453,-2.577361,-1.491976,0.299722,0.978557,1.577334,-2.082939,-3.871823,-2.538563,0.555891,1.006738,-4.158232,-3.804585,-3.119404,-0.750683,-0.980235,2.293819,3.283745,2.232177,-4.265512,-4.158863,-3.390135,-3.280745,0.395091,1.995595,5.849973,-3.238792,-3.968881,-4.150774,-1.512343,3.527148,-3.985278,-3.426642,0.513054,2.715096,1.655485,-4.457832,-2.485569,-1.010454,-0.446093,-0.410375,0.827249,3.172111,2.456387,-2.51521,-2.533711,-1.255527,-1.283574,-0.457069,0.324884,2.557479,-3.330591,-3.362484,-2.011333,-1.048124,1.519018,2.749645,-2.004954,-0.256506,0.058038,0.386881,1.696085,-2.03105,-4.546909,0.288358,0.988688,1.704775,2.256253,2.073482,2.507774,-4.623659,-1.208551,1.010739,2.291787,1.994027,2.703676,-2.49014,-0.306864,-0.955348,2.364735,2.434688,2.513371,-4.230881,-1.80807,-1.30236,1.056275,2.94063,2.497379,-1.121432,0.272668,-1.517022,-2.647503,2.689124
1b_a3011,-4.375384,-3.408318,-0.510506,0.717909,1.578061,3.322483,3.42775,-5.169606,-2.712185,-0.874411,0.60045,2.374593,2.066935,-3.813155,-2.299999,0.012374,-4.112757,-0.97612,0.393868,1.551884,-2.759882,-0.19868,-0.772335,-0.051809,-1.919833,-0.152351,-1.262845,-0.531897,0.232877,0.6829,2.284753,-2.342407,-1.791664,-1.002279,-0.039775,0.096623,1.202627,-0.913521,-2.003787,-1.414904,-1.461573,0.216127,-1.324564,-1.143726,-2.403789,-1.769149,0.932535,-3.060222,-2.727134,-0.958384,-0.533537,0.697521,1.782246,2.215421,2.674673,-3.997637,0.845049,-1.373091,1.372089,1.881616,2.366291,2.442026,-1.03287,-2.949383,0.15502,2.121615,2.730141,-0.248074,-0.808382,1.693045,3.246046,2.432504,-1.425784,-1.514178,1.228821,1.388717,2.694096,3.593366,2.696312,2.43207,-0.51642,0.011691,1.277515,3.751605,3.586838,2.79311,3.135628,-0.790602,-1.491635,3.182597,3.25492,3.32776,1.550532,-3.144364,0.501699,2.674482,2.966464,1.291961,1.60484,2.762331,2.46029,0.706148,1.031796,1.697924,2.144231,2.637609,2.516843,-0.201082,0.432504,1.062761,2.054686,0.673517,-4.733857,-2.356353,-0.994934,-0.039724,0.201731,2.56241,-3.714797,-3.308359,-4.270007,-2.740922,-1.295683,0.387999,-5.7338,-6.633978,-4.0754,-4.810434,2.366378
1b_a3012,-1.350524,-0.311836,-0.067318,1.222359,1.326848,2.637063,3.841749,-0.649743,-1.074783,0.434054,0.614768,1.219436,3.043287,-0.638205,0.097143,0.158909,-0.700091,0.227187,2.124241,2.053248,-0.653785,-0.485188,-0.287201,1.650126,-0.431332,-0.250507,-0.076141,0.992256,2.28364,2.702536,3.913283,-0.042959,-0.12024,0.369,2.071253,3.49278,3.515571,-0.456801,0.398594,1.362427,3.583786,3.29527,-0.912411,-1.630252,0.2979,1.090412,2.653363,-2.938617,-1.791286,-0.407149,0.726058,2.252966,3.25048,3.735998,4.351792,-2.290273,-1.834394,-1.454739,0.514419,1.462292,3.033466,3.22526,-3.226928,-3.371719,-2.257941,-1.036584,0.982386,-3.021483,-3.914185,-3.541429,-3.848452,-0.198339,-3.277071,-4.440337,-4.16409,-2.866673,0.421925,3.540111,4.389949,4.355236,-3.28598,-4.046563,-4.804101,0.679578,1.181556,3.433328,3.332152,-4.045336,-5.729511,-5.241625,-2.730378,0.940669,2.318386,-4.328246,-4.868535,-5.563288,-1.868173,0.739648,-4.785148,-5.520153,-5.49575,-1.203768,2.221764,3.410035,2.740776,4.118163,-4.813241,-2.654658,0.039266,2.612622,2.813041,2.927741,4.556947,-2.701878,-0.3129,1.743238,2.592828,1.742406,-2.292986,-0.984487,-0.663993,0.053192,0.319782,0.4515,4.556947,-2.323323,-1.628196,-1.084113,4.556947
1b_a3017,0.351635,2.118821,4.157722,8.562746,3.574571,2.363482,-0.72026,6.326032,6.203751,5.111606,4.565835,4.80201,-0.422525,7.415487,6.024446,5.591848,7.003342,5.213793,-1.905323,-0.665508,6.595749,5.304373,3.052433,0.9108,3.371868,0.948195,1.474633,-2.209371,-2.504482,-1.405349,0.884931,-2.416333,-3.158438,-2.819704,0.91772,2.566924,1.311048,-2.16283,-4.232604,0.496918,0.16629,1.107535,-2.82305,-3.21252,-0.7137,-0.09987,0.430179,-3.603922,-3.666954,-4.06866,-1.63641,-0.863924,-1.30166,-1.804222,3.061482,-4.277133,-5.428432,-6.336286,-6.244553,-5.627666,-1.928873,-1.09374,-5.575066,-5.75106,-6.367826,-5.200471,-2.187726,-4.293859,-4.746775,-2.144773,-0.978306,0.139143,-2.160043,-1.461178,-0.343516,-1.134027,1.558348,1.57056,3.187696,2.833063,-0.14805,-2.209453,-0.124486,2.092595,2.834951,2.734974,3.115107,-1.963936,-0.138306,2.296843,2.93178,3.021112,1.181155,-1.650879,-2.94656,3.943816,2.366657,2.018434,-3.27476,0.233281,-3.184768,0.28326,1.181265,1.28591,2.461697,2.983842,-4.577042,-2.448777,1.747933,1.410033,2.594466,3.061545,-6.589044,-4.34152,-1.799452,3.199838,2.971344,2.822996,-7.943333,-5.850389,-2.933175,0.828487,1.819515,0.620757,-3.526225,-4.832039,-1.790202,0.428838,4.221879
1b_a3018,3.817347,3.825303,4.171958,2.648295,3.144235,1.04781,1.223363,4.20334,2.251736,1.803912,2.953577,2.423072,1.791772,4.447939,2.654561,3.846509,3.034855,2.72103,2.407054,1.356657,3.664927,2.906655,2.599884,1.64114,3.645345,2.656528,1.698816,2.131839,2.295291,2.519633,0.541673,2.83161,1.987134,2.03438,2.323465,2.505593,0.399234,4.559801,1.563107,1.739467,1.596496,0.516643,-2.16389,3.011589,-0.60565,0.161983,-0.024399,0.309374,-0.473758,-2.262867,-2.229902,-1.15457,-0.168058,-0.33055,-0.808025,-1.634978,-1.75092,-2.155573,-2.017397,-1.51313,-4.275635,-6.118625,-1.946665,-1.849189,-2.276817,-2.14153,-5.95885,-1.944545,-2.545387,-3.297034,-4.999578,-5.564475,-4.374126,-4.441848,-5.026828,-5.461856,-6.150453,-2.230168,-1.140651,-0.253903,-4.987424,-4.894915,-5.459188,-6.04654,-3.797349,-1.364015,0.480074,-4.24229,-4.700274,-6.264678,-4.741108,-2.990767,-0.270079,-4.89852,-4.211763,-4.819208,-3.970092,-0.302326,-4.223264,-1.012726,-1.421885,0.14273,1.06001,2.123003,1.952374,1.637307,0.543775,0.311294,0.99905,2.029786,2.363567,2.558726,1.841107,3.581569,1.564344,2.598418,2.128054,3.325253,1.779715,3.101144,2.552543,3.100138,3.346618,3.315766,2.199792,2.623602,2.492909,1.544705,0.996931
1b_a3019,-1.461811,-2.744725,-4.591688,-2.360005,-1.31412,0.192995,0.786905,-5.382026,-5.370511,-4.200678,-4.532609,0.91755,0.877773,-7.928218,-5.799358,-5.450864,-7.921596,-2.669134,-1.31476,0.679233,-7.321491,-4.013087,-0.960027,0.669238,1.111509,1.19171,0.999053,1.21481,2.114248,2.002728,0.19871,0.435445,0.80492,1.273715,1.927728,1.30661,-2.236026,5.915407,0.791992,1.365175,0.320176,0.664975,2.977193,0.415419,-0.668705,-0.343982,1.731123,0.155243,-0.361794,-2.119138,-1.377491,0.588717,-0.586421,0.051355,-1.106084,-3.922008,-1.926847,8.729938,3.909281,0.190978,-1.057412,-2.969858,4.439243,3.314612,2.796003,0.729697,1.000948,5.543067,4.179482,2.077467,0.843992,-3.140483,1.073531,2.230467,0.631211,-2.865585,-3.783385,-0.684408,-0.771951,1.213574,-2.960368,-0.05251,-2.106483,0.218264,-1.541615,-0.358045,1.252773,-0.985164,-1.610568,0.409951,-0.996745,0.333196,0.92326,-2.766347,0.672962,-0.935581,-0.378974,0.942862,0.965222,-0.336228,-0.335431,0.858352,1.955473,2.024722,1.854004,1.810057,0.153516,0.997159,1.823059,1.529677,1.695783,2.839534,2.603186,2.123722,2.218513,3.460465,1.177799,0.775919,3.469054,2.87205,0.564322,-1.542832,-0.281387,-1.012924,-0.90315,2.015553,3.155658,0.30535,-0.223931
1b_a3020,0.259121,1.168027,2.357042,2.547834,2.768199,3.389086,0.697655,1.788919,2.874429,2.497734,3.676607,2.267908,5.497602,1.608103,2.336514,2.780391,0.954862,3.017883,3.654247,1.828877,2.262939,3.538004,2.957449,4.286808,4.769517,2.72876,3.396376,2.166471,3.103279,0.461721,-0.083202,-0.196731,-0.303869,-0.487185,-0.327636,0.223404,0.880743,-1.730947,-1.43892,-1.320404,-0.037065,0.244445,-0.769657,-2.273113,-0.308261,-0.577272,-0.382051,-4.147844,-2.992916,-3.678752,-3.96462,-1.890163,-0.809333,1.42053,-1.923065,-2.759072,-4.228745,-0.970908,-2.180686,-2.312634,3.446149,-1.583659,-2.160283,-1.264495,-1.409399,-1.929507,-1.265176,-0.697802,-0.958725,-0.734611,-0.974196,-0.464564,-1.1344,-1.037508,-1.189802,-0.554405,-1.773824,-1.860438,0.124574,1.38517,-1.24802,-1.498169,-1.979014,-1.97603,-1.78307,0.113902,1.469732,-2.227496,-3.567403,-2.068514,-0.803579,0.442417,2.153308,-3.076335,-2.676733,-2.091818,0.553489,1.00284,-2.441341,-2.340886,-0.361431,1.072871,-0.939858,1.479598,1.564453,0.725387,-2.68438,-0.316364,1.211194,1.242122,1.751836,0.379655,-1.895018,-2.841633,-1.15623,0.156533,1.560489,0.157146,2.484323,-0.055881,-0.607106,0.691028,3.713326,0.261386,-0.536059,-1.341175,-3.813937,-1.793049,1.653954
1b_a3025,2.254126,3.741694,7.732725,7.566727,6.804228,6.360393,5.895353,8.908897,6.309575,6.396269,5.786777,5.253769,4.880823,6.969913,5.822445,6.247467,7.426279,6.202604,5.142895,3.309978,7.468537,5.020394,3.602696,2.982415,4.916218,2.644699,1.638907,0.449579,1.903482,2.648327,2.164391,1.638149,0.705642,-0.518106,-0.33387,1.113801,0.910735,0.667113,1.146702,2.521569,-0.59776,-0.311611,0.068103,-0.173059,-2.007328,-2.124605,-1.565413,-2.081707,-1.621791,-1.684858,-1.606994,-0.757841,-0.97155,-0.283963,-1.240816,-2.984097,-5.054595,-4.009932,-2.42889,-1.696543,-0.635377,-1.940656,-2.116411,-4.806284,-5.017065,-4.326992,-4.088871,-4.495702,-4.785814,-3.750503,-3.445334,-3.693582,-2.670345,-2.966984,-1.861145,-1.878641,-1.906926,-1.555045,-1.523176,1.374985,-4.237497,-4.746762,-5.142694,-5.382052,-4.4521,-2.242332,-0.005127,-6.384941,-7.508584,-6.737524,-4.938556,-3.337023,-1.479185,-6.284936,-8.553912,-5.80753,-3.305552,-1.829226,-6.122233,-7.093556,-5.829509,-1.629051,-0.485012,1.080893,1.48945,5.603312,-5.067549,-1.733281,0.453136,0.582431,1.732251,6.575972,-2.484347,0.662569,-0.178107,0.377673,1.697539,6.977509,-0.672719,0.519607,0.505521,0.899567,1.882839,7.255171,0.095167,-0.481852,-0.018413,0.737223,1.964132
1b_a3026,3.936151,5.111064,7.391515,6.743801,4.671598,3.022113,2.118853,0.882539,2.176286,4.718427,4.712883,2.935042,1.800412,2.853241,4.581858,4.912915,-2.89232,3.046862,3.05818,1.231212,1.008145,2.030569,2.825261,1.174702,0.676591,1.194865,0.854113,0.656362,0.570045,0.28769,-1.192012,0.353355,0.123534,0.06177,-0.104209,-0.073084,-1.518646,0.150022,-0.882938,-1.143435,-1.053347,-1.165311,-1.398632,-1.029217,-2.521843,-1.82033,-1.71682,-4.839163,-2.755465,-2.44937,-2.122706,-1.261902,-1.062548,-0.924879,-0.944002,-1.70439,-3.92599,-3.119624,-1.952679,-1.158679,-0.971879,0.867782,-2.233281,-2.686449,-2.193954,-1.070254,-0.562733,-2.609597,-2.62753,-1.190861,-0.868911,-0.579712,-1.482091,-2.116014,-0.653677,-1.847445,-0.616664,-0.791456,-1.657803,-0.351565,-1.548864,-1.197546,-2.120373,-2.173128,-2.039478,-0.586081,-1.155813,-1.971757,-3.408164,-3.396433,-3.205903,-2.115517,-1.420258,-3.060959,-3.98312,-4.296764,-2.789316,-1.361074,-4.17159,-3.721682,-3.192356,-1.570611,-0.685356,1.12411,2.101972,3.816995,-3.32847,-2.337641,0.272113,1.263171,2.148499,3.802001,0.586908,1.052011,0.373494,1.954751,2.449197,3.523794,0.171197,1.639371,2.289705,2.526709,7.070465,6.18944,1.922428,3.675255,0.840108,-0.307911,1.458124
1b_a3027,1.464114,2.585699,1.695216,0.370803,0.940992,0.575924,0.818626,4.589873,1.620277,1.242718,0.471462,0.529824,0.258034,2.595188,1.715789,0.745142,2.902011,1.03488,0.371554,-0.561284,2.28791,1.430803,0.260739,0.294634,2.349762,0.712269,0.181203,-0.353556,0.221746,0.867658,-0.373104,0.304937,0.237924,-0.075946,0.430885,0.644879,-0.398941,0.426365,-0.134007,0.147594,-0.839465,-0.13064,0.174384,-1.170303,-0.138593,-0.316903,-0.341889,-0.428442,-1.093591,-1.18835,0.336425,-0.865758,-0.120967,0.798082,0.420901,-0.019949,-1.548286,-4.592813,-0.603526,-0.308146,0.576893,1.719044,-2.635171,-3.237789,-1.373851,-1.168663,-0.249522,-0.549823,-2.091706,-2.84144,-0.309016,2.982882,-1.547175,-1.584688,-0.451219,0.454809,1.063462,0.837934,0.007665,0.709488,-2.910329,-1.200011,-0.706996,-1.304293,-0.58288,1.463098,0.438829,-2.542672,-1.703951,-1.85114,-1.425075,-1.180671,0.572681,-2.89798,-3.873909,-3.416667,-1.924557,0.006481,-2.725047,-0.660957,-0.513915,-0.25545,0.079646,0.798837,1.381144,3.125722,-0.778712,0.105314,0.313002,0.700379,0.621423,3.842982,-2.154113,-1.975646,0.299056,0.599611,1.171652,1.947564,0.132054,0.195782,1.422232,-0.524448,1.649828,0.898759,0.543948,0.190475,-0.196107,-0.091718,1.131862
1b_a3028,-0.204191,2.147029,2.134091,3.023687,2.595453,3.103632,2.77923,4.088427,2.039961,2.276449,2.593203,3.088862,4.110404,2.003628,2.335976,2.638069,3.490138,3.88471,3.309767,3.808516,3.836277,4.169714,3.293296,3.75357,4.409395,2.963665,2.864464,2.659583,2.856189,3.038468,3.468633,0.247083,-0.861471,1.773277,1.730817,2.208546,2.505226,-0.665858,-1.539536,-0.77782,0.008156,0.598644,-0.739719,-1.236183,-4.287749,-5.281369,-2.729486,-1.148267,-1.079148,-6.642903,-4.06054,-1.668999,1.472053,1.992276,3.066509,-1.434355,-4.241634,-7.396902,-5.890883,-0.295361,2.16274,2.655868,-1.204707,-3.981802,-6.691933,-2.097033,1.953157,-1.490693,-2.438659,-3.957553,0.348755,0.540051,-2.534784,-3.95788,-2.234286,-2.861257,0.05535,1.494352,2.215674,3.282701,-3.111148,-3.56235,-3.941476,-2.852427,0.221294,1.229613,2.467721,-3.411694,-4.791869,-5.32481,-2.511988,-0.319289,1.546192,-3.421405,-4.617931,-4.376162,-0.569878,-0.342629,-3.688936,-3.995595,-3.5079,-0.375599,0.401775,2.183034,2.714943,3.356719,-4.107364,-1.722838,0.762811,1.427079,2.593978,3.30033,-3.166622,-1.565106,-0.968615,1.740484,2.637612,2.685077,-3.246156,-1.525431,-0.927581,0.602237,1.886268,3.077097,-1.574824,-0.505059,-0.150484,-1.661059,3.567204
1b_a3033,-8.641125,-12.754748,-6.182176,-4.77974,-1.871314,-0.639255,6.588066,-11.428442,-8.265981,-5.420754,-7.662344,-6.754516,1.994133,-10.698725,-7.407802,-5.902625,-9.007105,-8.451797,-7.918895,-2.378441,-8.704906,-12.572833,-9.289139,-3.803821,-9.743853,-8.561924,-3.408871,-0.810668,0.184254,2.100314,3.659832,-9.585756,-4.768432,-1.103876,-1.15501,-0.803357,1.755462,-4.748181,-1.321542,-1.540881,2.234468,0.834552,-2.465834,-1.692369,-1.626083,-2.023266,1.70871,-2.127961,-0.342616,2.195918,2.37043,4.129143,5.735857,7.358362,5.266222,-0.116144,0.988101,3.775717,2.956559,6.411654,8.719269,14.167594,2.141354,5.01181,5.893745,-0.681983,6.669262,-0.478548,5.449548,3.499291,8.293554,14.264098,-3.372752,0.992857,5.999322,8.306746,13.247629,13.844967,14.90682,6.030084,0.100973,6.677388,8.360828,10.609339,11.134743,18.434698,8.215752,-11.687616,7.932554,1.089702,9.606318,8.742144,5.509355,3.089569,-3.922263,2.222314,5.070016,6.873354,-7.648787,-2.430499,0.711315,2.356155,5.266063,7.59641,4.515802,-2.059125,-1.74268,-1.303759,1.776747,2.281792,3.046264,-1.926171,-8.602934,-5.63533,-3.752561,-1.448274,3.372233,-1.946637,-5.897631,-5.314992,-8.577456,-5.727916,-0.426465,-5.689366,-7.694513,-11.678565,-4.246877,-6.545515,-5.355219
1b_a3034,1.711662,1.443963,0.97652,-0.587775,-0.648274,0.627375,1.165204,-0.143159,-1.849177,-0.775155,-2.572894,0.243723,0.574295,-2.703766,-2.808319,0.214832,-2.6242,-0.608396,1.403433,0.059602,-2.49449,-0.346271,-4.526179,-1.215478,-1.138484,-0.111523,0.076432,0.15957,1.251657,1.369053,0.244528,0.76777,3.405355,1.740559,1.4904,1.157541,0.717791,1.920474,0.949241,1.284806,1.344409,0.739319,1.743314,1.519775,0.849596,1.138291,0.719527,0.674077,0.896875,-0.633959,-0.813703,0.004042,0.563758,0.239962,0.461502,0.341095,0.666227,0.399756,0.066535,0.687044,-0.573659,-1.028705,-0.197358,-0.362117,-0.479209,-0.872274,-0.672217,-2.465579,-1.818933,-1.761484,-1.332557,-1.30782,-2.239008,-1.481951,-2.908207,-1.706735,-0.377102,-0.759891,0.163894,0.495749,-3.145116,-3.687612,-1.619191,-1.720181,-0.942614,0.715218,0.314144,-3.769627,-0.800097,-1.930347,0.564547,0.588663,0.839136,-2.307428,-2.762805,0.381376,0.646558,0.410893,-0.185989,1.68974,1.030456,0.60295,0.875593,1.569867,1.337761,0.97938,0.864708,0.823302,-1.840405,0.533074,-1.842162,-1.390636,3.063774,2.818937,0.441708,-0.063506,1.177625,0.318169,3.806173,3.16909,1.940082,1.678627,0.846901,0.911306,2.864635,0.919537,-1.148821,0.911368,-0.203282
1b_b3005,-3.93428,-2.321021,-3.300154,-3.397956,0.277411,1.249541,1.025068,-3.882532,-5.667512,-4.059547,-0.574134,0.760076,2.949428,-3.040958,-3.43119,-3.332735,-1.463886,-1.347087,-1.497407,2.957499,-2.437577,-4.032613,-2.322205,-4.551641,-3.018936,-3.854782,-4.691502,2.368183,2.726532,1.531763,3.054334,-1.637867,0.127701,-1.543605,2.38001,3.145742,3.866752,-2.023,-3.38309,2.314073,3.390322,3.091946,-1.962632,-4.906068,1.680847,3.450302,2.895707,-1.863206,-2.730107,4.088257,4.248134,3.130495,2.866917,0.479392,9.152617,3.967,3.932079,-2.326375,4.284686,6.484118,8.925308,6.450853,-5.494805,-5.586611,-3.546091,-2.882586,-2.458591,1.661343,1.678797,2.024725,3.059973,5.712132,-0.918934,-1.763751,-0.197327,1.838736,-1.383704,1.397811,4.874862,5.181183,2.250771,2.285392,0.076435,0.805854,2.33476,4.199055,2.31208,0.670645,-1.569667,0.800965,2.713956,1.722465,1.966659,-2.907531,-0.545728,2.744913,1.811972,0.355867,1.399885,-2.119519,-1.413271,0.17909,0.08264,2.669436,0.609278,0.758257,-6.683738,-1.342364,-1.576174,-0.818204,1.496121,0.261594,-3.751934,-4.894057,-3.590689,-3.663888,1.101619,0.235377,-2.618047,-0.912898,-9.73316,-2.491373,1.141677,-0.021229,-2.880352,-2.253323,-1.727129,-2.017442,4.630304
1b_b3006,2.543125,4.117269,2.899903,2.430254,2.149269,1.507222,0.062546,9.609669,6.372144,4.072221,3.540413,-1.293134,-1.700794,5.226388,5.663529,4.516592,8.695164,3.496387,1.518287,-2.145318,6.10585,4.723744,1.55929,-1.710844,6.136357,2.785589,-2.312095,-1.969006,-1.219503,-0.055925,1.443058,2.351939,-2.927951,-1.864591,-2.531413,-0.344428,-4.936636,3.576573,-2.666654,-2.270372,0.206477,-1.201701,-1.858894,-0.386122,-6.76361,-2.26584,-1.717773,-5.039688,0.508857,-2.458391,-3.15342,-0.933859,1.045339,-1.624894,1.94771,-3.373313,-3.857632,-3.491081,-0.906044,0.901194,1.424714,0.834984,-6.212711,-4.795234,-2.326486,-1.361305,0.586148,-2.282408,-1.67962,-2.581977,-0.362407,0.643197,-1.771511,-3.059401,-1.152223,-0.956981,1.42188,1.43957,1.581554,2.261677,-1.274878,-1.01388,-0.943022,-0.784357,-3.129114,1.772073,2.60309,-0.951558,-1.684237,-1.110397,-2.195964,-2.977728,-0.245318,-2.367238,-2.117779,-1.382792,-1.501455,0.949581,-1.494279,0.058846,-0.409305,0.13092,0.379442,1.295297,2.303238,2.033154,-0.010362,-0.103749,0.153007,0.281648,-0.249778,2.343113,-1.568368,-0.667868,0.011343,0.268148,3.131098,0.368568,-1.759508,-1.961949,-0.108122,1.078953,1.949671,0.127898,0.017938,6.406222,-13.050135,-0.806658,3.823664
1b_b3007,3.886548,4.949488,3.539196,3.037967,2.710301,1.902883,2.224766,8.446282,5.120456,3.718884,3.62916,2.559941,2.052878,5.598968,5.671843,4.318681,5.048769,3.541703,2.288792,2.056822,5.946701,4.121947,3.621804,2.324156,6.369021,3.708763,2.682384,1.645211,1.634054,1.390366,1.214855,2.074441,2.644341,2.558576,1.497933,0.52682,1.470786,1.31548,1.163614,0.578058,-0.061102,-0.858814,-0.323654,2.265619,0.381207,0.063122,-1.746516,-1.716393,-1.750955,-4.857817,-4.258384,-2.240273,-1.140437,-0.256579,1.905307,-4.347436,-4.549528,-4.07363,-3.02016,-2.066818,0.025599,-0.967355,-3.196956,-4.772191,-5.310941,-3.010216,-1.872818,-4.635126,-4.334205,-5.036541,-2.915635,-2.10429,-4.153995,-5.184783,-5.298516,-3.02601,-0.800281,-0.841645,0.723507,2.236216,-1.887894,-6.383326,-5.437595,-4.082958,-2.070672,-0.191251,1.465857,-5.620145,-5.770856,-5.725618,-5.283817,-0.874878,-0.039366,-6.509319,-4.241308,-6.913972,-3.394575,-0.347959,-6.366253,-3.508041,-4.457374,-1.061532,-0.029355,0.909416,2.356017,2.170349,-5.320757,-1.989723,0.3885,1.105428,2.343988,2.435681,0.406782,2.265618,2.061023,2.060148,2.566257,2.546458,2.078841,1.82924,1.801491,2.024834,2.608826,2.648486,3.618423,2.265619,2.265619,1.355813,2.265619
1b_b3008,-0.919093,-1.387004,-0.582463,0.036493,2.166328,2.018581,2.675243,-2.173243,-2.13309,-0.356942,-0.105049,1.082516,2.293585,-2.222887,-2.615951,-1.201815,-2.973667,-2.004914,-1.427923,0.128946,-3.848773,-2.795169,-1.406679,0.139888,-10.068769,-1.305836,-0.159546,1.434674,3.193244,3.438774,2.217624,-1.494514,0.049864,1.880147,1.57252,2.376995,3.695628,-1.198014,-1.531616,0.981571,2.319812,2.524676,-1.159917,-1.112663,-1.711914,-0.050632,1.480711,-2.406929,-2.619798,-2.242707,0.241862,2.190399,3.038681,3.604151,3.164969,-4.444006,-4.924708,-1.673368,1.269467,2.549834,3.255265,3.489871,-5.941207,-5.224952,-0.235284,1.461121,3.260554,-4.709776,-3.837142,-0.098439,2.523753,2.434338,-3.994202,-2.710744,1.671983,3.080066,3.301897,3.730225,2.948316,3.065241,-4.29778,-1.438544,2.588239,4.032021,3.770947,2.319004,2.625483,-3.090132,-1.347979,5.358848,2.974379,1.814466,1.964448,-3.440346,-1.196272,2.622822,0.566182,1.290428,-3.293877,-4.363132,-2.445063,-0.487722,1.700192,2.33608,2.19347,2.698204,-2.411835,-3.042343,-0.905627,0.976125,1.918184,2.647656,-2.090377,-2.247015,-2.725376,-0.436731,1.334737,1.368737,0.623249,-2.293125,-2.206639,-1.062032,-0.4175,0.862188,-1.329577,-0.162805,-0.691941,-1.223251,3.082462
1b_b3013,0.907484,-0.947113,-0.842099,-1.132183,-0.90333,-1.260711,-1.437838,-0.59927,-0.834294,-1.482955,-1.560324,-1.049085,-1.089795,-1.010034,-1.320661,-1.732258,-0.25089,-1.401678,-1.666067,-1.586233,-0.877706,-1.932984,-2.075889,-1.819618,-0.332067,-0.804524,-1.07032,-0.228271,-0.80044,-0.741066,-0.877725,-0.542983,-0.748757,-0.867044,-0.901217,-0.634181,-0.098626,0.01742,1.027867,-1.004605,-0.396372,-0.361006,0.351875,1.412848,-1.040775,-1.114031,-1.530252,-0.33234,-0.332108,-1.53973,-0.771015,-0.252949,-0.198086,0.031674,-0.281901,0.160575,-2.894342,-0.585384,-1.213989,-0.307693,-0.394347,1.021042,0.102269,0.91054,-1.226723,-0.973422,0.37279,1.298058,3.053512,0.22992,-0.4331,2.373161,0.846241,0.663751,1.763622,2.704146,1.50416,2.581949,0.588438,-0.476276,0.810425,2.267119,2.402378,0.091786,1.740548,0.618092,0.77573,2.423165,2.460623,2.088549,1.373851,0.595041,0.329937,2.209228,1.181077,0.9289,0.692622,0.258121,2.915739,1.24161,1.12946,0.117656,0.367354,-0.165402,-0.631311,-0.853508,0.62103,0.809964,-0.407842,0.329406,-0.342567,-0.904307,-0.33234,1.633566,0.31578,-0.765754,-0.391335,-0.773861,0.878539,0.990416,1.339144,-0.175926,0.997904,0.145384,1.205216,0.273978,-1.145441,-0.140061,-0.33234
1b_b3014,-1.257483,-1.851346,-1.82501,-2.562849,-1.202024,-1.131027,0.097309,0.076494,-0.367621,-2.012616,-1.433058,-1.088943,-1.095102,0.469201,-0.097854,-1.334418,0.925491,-1.237035,-0.785318,-1.024045,-0.120257,-0.288098,-0.829683,-0.590795,-0.326405,-0.546343,-0.545835,-0.43638,-0.290332,-0.330476,0.447342,0.039281,-0.720507,-0.867129,-0.351412,-0.207473,0.631352,0.575957,-1.630816,-0.216368,-0.379765,0.278736,0.13348,-0.469072,-0.661635,-1.728241,-0.698393,-0.376424,0.339871,-0.0917,0.394411,-0.129152,0.462332,0.608652,1.217756,0.04297,-1.155681,-1.074444,-1.128372,-0.499103,0.540529,0.137131,-1.063446,-1.744502,-0.800253,-1.411987,-0.218731,-0.756554,-0.262796,0.038271,0.087509,0.012428,0.259109,-0.098693,0.539805,1.289497,1.03292,1.161405,1.356986,0.98871,0.099782,-1.396966,1.570627,1.984443,1.326993,1.66055,1.091095,-0.603418,0.067737,2.155776,2.092252,2.464195,2.422052,-0.187175,0.772672,2.439079,5.066508,3.105475,-0.012073,-0.381324,0.960798,2.243117,2.053339,1.314788,0.046268,0.481792,-0.819973,0.188814,1.688938,0.878561,-0.55773,-0.266288,0.072696,-0.920867,-0.440875,1.07047,-1.244466,-2.483325,0.721161,1.781432,0.910952,-1.298518,-0.887342,-1.824441,0.300996,-0.399423,0.072696,-0.28648,0.072696
1b_b3015,-1.812838,-1.061397,-0.976695,0.205766,2.637881,3.361057,2.414878,-0.821624,-0.123229,-0.08443,0.887728,1.983948,2.769932,-0.787622,-0.902528,-0.040668,-1.183743,0.896773,0.747264,2.768761,-0.66987,0.605495,1.166457,1.797581,0.293198,0.303772,1.91855,2.531861,1.909901,2.586523,2.109516,1.604117,2.531437,1.493011,2.077625,2.428878,1.690241,0.992513,1.166703,1.974822,1.850319,1.98412,1.064088,1.124112,1.978745,2.382465,1.829144,0.236845,0.79933,-3.557585,1.113442,-0.239563,1.122833,1.662564,2.362403,0.9291,-0.527298,0.062223,0.103421,0.078667,0.46949,-1.407696,-0.074636,0.276363,1.640997,0.644949,-1.026538,-0.00047,-0.410613,0.397551,-0.659733,-1.786779,-0.450537,-1.024979,-1.7822,-2.762074,-1.960822,-0.883233,-0.312376,1.460242,-1.549094,-1.450466,-2.532884,-1.491433,-1.28953,-1.146329,-0.33403,-1.009072,-2.78829,-2.592159,-2.135307,-1.114053,-0.718745,-1.314639,-3.855161,-2.513995,-2.291194,-0.93304,-2.773083,-5.278028,-2.780773,-1.954491,0.280813,0.172514,1.020601,3.099127,-2.43673,-2.728302,-0.51483,0.095528,1.272855,2.549064,-1.638535,-1.237375,-2.043404,0.752932,0.261047,1.865469,-0.129723,-3.248813,-3.641092,-0.520945,-0.107791,-0.606799,-1.17779,-0.577518,1.538332,1.000053,2.449304
1b_b3016,-1.6113,-2.495429,-3.695102,-3.392721,-3.455576,-1.695171,-2.158695,-6.841654,-4.804358,-4.044093,-3.726941,-3.395967,-2.136265,-5.581705,-4.529475,-4.005167,-1.381754,-3.229976,-3.079727,-2.075469,-6.266716,-2.697904,-1.972788,-1.765497,-1.377684,-2.301551,-1.364614,-1.466241,-2.201667,-1.284246,-2.229529,-1.66986,-1.859993,-0.909903,-0.110524,-0.999586,-1.670562,0.313287,2.050267,-0.59596,-0.260562,0.733281,-0.300152,-0.830445,-0.174996,-0.479877,0.103033,-1.381754,-8.376637,0.35248,0.900463,0.386386,-1.611525,0.111318,-0.681783,5.199063,0.54403,2.528596,2.508123,0.757597,3.435266,3.226199,2.70488,3.744666,3.195774,3.580669,2.82064,1.644645,4.396109,4.767654,3.943296,3.459373,2.368012,3.945134,3.891561,3.559342,3.243056,2.907007,3.017116,-1.471487,2.808406,4.830403,5.343924,1.092911,2.992323,0.986772,0.04047,1.710672,2.6885,3.22122,3.57631,3.101583,2.007661,2.841981,2.080022,2.850315,2.472647,1.673416,0.673557,0.740815,1.413739,1.183847,1.242673,0.249894,-1.478032,-1.613569,1.330573,0.273395,0.719444,-2.127077,-2.21904,-1.999678,2.112516,-1.585269,0.60121,-1.697298,-2.305949,-3.135619,1.16138,3.476398,0.441863,-2.830647,-2.781109,-3.688047,1.502409,-4.53571,2.582639,2.665175,-1.381754
1b_b3021,-0.013695,0.851746,2.334437,2.429056,2.511048,3.351827,3.199429,1.509388,2.49557,2.193249,2.304427,2.647173,2.87566,1.471657,2.348375,2.309484,1.350279,2.226137,2.680614,2.732179,1.996307,2.086427,2.350959,2.071196,1.715714,1.437671,1.449113,1.919101,2.08022,2.278075,2.824236,0.846934,1.329571,1.078022,1.726021,2.422815,2.538519,-0.917683,-0.262683,0.810596,1.268745,1.447829,-0.999246,-2.365772,-1.646065,0.096241,0.565576,-2.960846,-3.257225,-2.266098,-0.79874,0.594939,2.276204,2.541093,3.19681,-4.544175,-3.81384,-3.04915,0.349567,1.525848,2.162291,2.542523,-6.20362,-6.195075,-2.581669,0.895922,2.452687,-5.614139,-5.508861,-1.308903,1.570511,2.046602,-5.369293,-3.496482,0.08063,1.772787,1.803954,2.590893,2.934258,3.059732,-5.463907,-3.343405,-0.093363,0.593939,2.312032,2.729833,2.800088,-5.384906,-5.00167,-1.930619,-0.18932,0.2402,1.499028,-6.03688,-6.774545,-3.710528,-1.02974,-0.11275,-7.037927,-7.157552,-4.215086,-1.213435,0.325012,1.91042,2.47774,3.089991,-6.466054,-4.071904,-0.531878,0.991347,2.04493,2.735434,-3.724521,-1.978415,-2.744623,0.179512,1.147696,2.558886,-2.409006,-1.144582,-1.371414,-0.115812,0.511208,1.912326,-0.867889,0.088342,0.373517,-1.379828,3.594461
1b_b3022,0.014061,2.451306,2.71061,3.066259,2.467195,1.477819,1.139107,7.574716,5.402705,4.382184,2.400932,0.033552,0.84523,4.091883,4.53433,4.677525,2.835293,1.929357,2.002052,0.015741,0.733292,0.887898,0.432228,-0.158081,0.965178,-0.971135,-0.086232,0.345011,0.866192,1.436552,-1.77009,0.447641,-0.211105,0.025635,2.054229,2.013187,0.286012,-0.862221,-0.513272,1.570217,1.87003,-0.266067,2.256223,2.556402,-0.308509,-0.229709,-0.23755,1.222886,0.712019,-2.020134,-2.054714,-1.618386,-0.902268,-0.276442,-0.548739,-2.334315,-2.694688,-1.922788,-1.376028,-1.520279,-0.464707,-0.785267,-1.400133,-2.205418,-1.196442,-1.880134,0.831817,-1.685216,-0.639055,0.153626,0.597126,-2.225163,1.557939,1.698178,-1.905567,-1.300136,-2.827408,1.347658,-1.173064,1.307409,-1.329619,-1.112743,-1.579858,-2.920181,-2.141386,-1.000003,1.044155,-2.250371,-2.671546,-4.991371,-3.919654,-0.105699,0.284629,-3.344225,-4.258425,-4.016792,0.065822,-0.149026,-3.768214,-3.062729,-2.109955,-0.652587,0.017503,0.014312,0.916657,1.153001,-1.818266,-0.454199,0.226945,0.063089,0.994721,1.158399,-2.357388,-1.907191,-0.056006,0.925035,1.622697,1.810955,-2.647736,-1.747,0.011254,1.156017,2.063426,2.015725,2.165424,-1.028027,-0.012953,0.423163,-0.375766
1b_b3024,1.792289,2.792164,3.09906,4.806116,4.279983,4.320623,5.308902,1.767825,3.112235,3.649634,4.187248,3.638485,4.655917,2.186586,2.892026,3.830836,2.42216,3.562038,4.075092,3.59551,2.426623,2.345376,2.975909,3.825889,1.412092,1.327021,2.230504,3.676897,3.315988,3.688556,4.995053,0.856221,2.944377,2.224376,2.736654,3.319305,4.458882,-0.531206,0.107367,0.763248,1.747947,1.431532,-0.53581,-1.202206,-3.208049,-1.273388,-0.325741,-3.331147,-2.123628,-6.394141,-2.625134,-0.907378,1.408329,3.487803,3.99059,-5.118852,-7.680603,-9.841199,-4.411763,-0.969213,1.7411,-1.205652,-5.587139,-7.028635,-8.924541,-4.406633,-0.551441,-5.741235,-6.59839,-5.238874,-2.677495,-2.335718,-5.317657,-5.269266,-3.2331,-2.702177,-2.042201,0.761867,2.326351,4.535728,-4.934955,-4.456517,-5.538224,-3.906912,-0.522086,2.371272,4.131927,-5.133514,-6.241927,-9.017145,-3.715027,1.21093,2.269223,-5.504118,-8.117681,-7.76297,-2.20862,0.90895,-5.258184,-4.85666,-4.694371,-0.274545,2.454784,3.001751,3.767482,5.256703,-4.403154,-2.157465,1.295046,2.946341,3.874235,4.282103,-0.352695,0.140257,0.782019,1.802836,3.524727,4.007414,0.868248,0.848296,0.726996,1.309132,3.064047,3.986742,1.955044,2.439944,-0.548673,-0.484585,5.166878
1b_b3029,0.440586,1.983223,2.130345,1.618511,2.478529,2.239183,1.030154,3.401034,3.859778,2.191955,3.426615,2.78021,1.177061,5.878096,4.474027,3.781328,4.820249,3.804931,2.84943,1.29558,5.276713,4.315339,2.779603,1.442416,3.60275,2.779847,1.329979,1.061208,0.301049,0.235995,0.497665,1.998937,0.612675,0.431924,0.329244,0.008788,0.543881,-0.188459,-1.253828,-0.91611,-0.632825,-0.623955,-0.082884,-1.251603,-1.270619,-1.191828,-0.99614,-1.92701,-1.454765,-3.678967,-1.552132,-0.815123,-0.525011,-0.146254,0.617821,-4.190528,-4.852641,-2.724472,-2.911153,-1.107383,-0.487674,-0.513166,-2.114823,-2.32719,-2.305366,-2.196285,-0.863526,-2.420108,-2.515122,-2.271655,-1.840235,-0.981326,-1.44833,-1.057019,-1.315905,-1.026981,-1.499859,-0.526502,0.578652,1.240325,-1.088032,-1.58703,-1.365038,-1.45293,-1.274216,-0.194533,0.903054,-1.341701,-1.737385,-1.078989,-3.074612,-1.725039,-0.431494,-1.005589,-1.765641,-2.320589,-1.912137,-1.578079,-1.300245,-1.220214,-1.352236,-1.977105,-0.851334,0.67614,1.44724,1.418699,-1.069057,-2.236091,-0.359912,0.146563,1.609397,1.918164,-1.020593,-0.26497,-0.840908,0.363606,1.645451,2.055328,-1.291727,-0.496158,-0.217941,0.273943,1.661088,1.782801,-0.036128,-0.132623,-0.411931,-0.500574,0.970433
1b_b3030,-2.946687,-1.607613,-0.852492,-0.837438,-0.294351,0.502991,1.227557,-2.146534,-1.924217,-1.534164,-0.425277,-0.222364,0.358985,-2.630092,-2.535702,-1.430264,-2.91697,-1.666527,-0.518845,-0.332337,-2.378625,-1.762048,-1.317128,-0.761507,-2.364643,-1.169793,-0.706175,-0.197145,0.323378,0.45981,0.875893,-2.545263,-0.370601,-0.195811,0.388554,0.497056,1.196415,-1.90798,-1.825416,0.321074,0.3567,0.589617,-0.29162,-0.275322,0.066771,0.257835,0.280049,-0.329585,-0.207924,-0.586113,0.051321,0.176329,1.006845,0.738615,2.047021,0.061761,0.176379,0.326968,0.428476,0.681162,0.82424,1.651692,-0.309184,0.326908,0.569321,0.452572,-0.023965,-0.065827,-0.092812,0.032956,-0.163908,1.366939,0.680514,0.671824,1.226121,1.422775,1.926767,2.062842,1.762613,1.622173,1.164241,1.575434,2.117271,2.031575,1.74349,1.983989,1.310942,1.44816,1.94067,1.861784,1.631051,1.019973,0.653611,1.901494,1.814648,1.53286,0.944021,0.608837,1.879034,0.514592,0.532755,0.226214,0.184247,0.446281,0.084378,0.63672,0.099626,0.12426,-0.111092,0.23159,-0.140065,0.879429,-0.871001,-1.321282,-0.52267,-0.603749,-0.55029,-0.284296,-3.039856,-1.868048,-2.321474,-1.727306,-0.993279,-0.869039,2.013515,-2.787275,-2.618144,-1.824451,1.989077
1b_b3031,-0.463432,0.809098,0.846315,0.739024,1.292734,1.462987,1.111055,-1.684064,0.146781,0.440026,1.336684,3.503882,-1.503377,0.118688,1.276184,0.772547,-0.532904,-1.01315,-0.539715,-0.585308,-0.137428,-0.511756,-0.314932,-1.245952,-1.21652,-2.10455,-1.268805,2.243957,-2.978439,-4.254087,-1.440656,-1.61088,-2.251966,-1.054668,-1.881447,-4.16179,-0.901207,-3.136065,-1.264468,-2.144855,-5.071859,-0.938708,-4.808812,-3.896302,-1.349533,-0.85378,-1.231772,-4.843343,-5.548698,-0.592247,-0.969763,-1.243689,-1.441471,-1.107273,1.324996,-0.460668,-0.753752,-0.648337,-1.401466,0.278622,-1.302927,-1.957308,-1.507174,-2.025576,-1.661237,-1.542953,-0.853421,0.247194,-2.46763,-2.146182,-0.637472,-2.25546,-1.562179,-1.067067,-1.283613,-1.279625,-1.845816,0.948492,2.59658,1.6758,-1.913948,-1.577705,-2.366924,-0.182705,-0.374302,2.484519,4.112762,-1.431874,-1.640574,-0.378677,1.724654,2.346527,4.486998,0.041145,0.447907,1.715129,8.632549,6.624418,2.262729,14.285942,12.963453,6.819885,6.152097,3.187302,2.763024,2.565883,3.028044,3.01423,2.381933,2.359818,2.243224,1.083533,-3.439153,-2.070907,1.543124,1.550385,1.472309,1.41549,-0.411923,-1.512833,-1.178998,0.316438,1.086081,1.317879,-2.067423,-3.042965,-2.964832,-2.412627,2.126848
1b_b3032,1.40673,3.45495,3.904342,3.02289,2.645713,2.579141,2.314322,3.560829,3.912927,3.881692,3.604746,2.628557,3.030608,4.854945,4.29952,4.011796,5.718551,4.605075,3.51942,2.523153,5.473789,5.136688,4.652076,2.51483,4.374802,4.090878,3.425133,3.606204,2.358679,2.003427,2.529157,1.789861,3.215257,3.132902,2.761692,2.246398,0.891724,0.827589,1.580297,1.637276,1.533396,1.336715,0.234324,-0.106334,-1.010645,0.944192,1.68524,-2.347214,-3.092379,-3.46822,-1.298917,0.308726,-0.794047,0.681529,1.295496,-1.563955,-2.965012,-3.440398,-1.304104,-0.600267,-0.049239,-1.099934,-1.487138,-3.60832,-4.685872,-4.825721,-2.593234,-3.037918,-3.644157,-5.385764,-4.436788,-4.003936,-3.216254,-4.645525,-5.016004,-4.901556,-1.912843,-0.288468,0.821332,1.827706,-4.461417,-5.194144,-5.731748,-5.444496,-2.295708,0.483542,1.035167,-3.683794,-5.459678,-6.420265,-2.965719,-0.548204,0.532501,-4.662952,-4.508981,-5.371526,-1.992661,0.421485,-3.313983,-5.287188,-3.45543,-0.380908,1.03212,1.472551,1.936993,2.292332,-3.862176,-1.516816,-0.221851,1.415644,1.680642,2.073193,-3.42081,-1.027604,0.47932,0.71336,2.294948,2.337569,-1.487636,-1.133532,-0.429652,1.479376,2.338102,3.164026,-0.853813,-0.077721,-1.734735,0.342946,1.85227
1b_b3037,1.087331,4.106205,2.51017,3.004942,3.700317,3.001718,2.3256,8.868826,5.986295,5.01252,3.435088,1.70355,2.099318,5.287011,5.01505,4.448303,6.177272,3.447381,1.421027,1.750127,8.749714,4.444407,1.76533,1.052873,3.097055,1.151041,-1.462769,1.095702,1.025461,1.287788,2.010855,-0.484418,-1.177769,-0.295992,1.638696,2.125274,2.992539,-1.338172,-2.04998,0.362205,0.078771,1.40163,-3.523564,-3.121463,-2.805458,-2.00191,-0.946225,-6.267778,-3.237312,-5.48031,0.61375,1.147615,2.966398,3.096203,3.099513,-7.372327,-7.878015,1.047468,1.247383,1.961472,2.850294,2.219163,-8.832241,-7.461738,-0.589789,1.223996,2.946018,-8.331327,-7.565664,-2.419017,3.685773,3.629752,-6.776019,-6.596943,-2.447471,1.345413,0.710473,2.909424,3.300679,3.29465,-6.285701,-5.749431,-2.209725,-0.501777,0.097035,4.125288,4.089722,-11.104269,-7.530893,-1.523605,0.29264,0.252606,3.278885,-8.811392,-6.117669,-0.675059,-0.481216,1.606425,-11.295844,-10.716655,-3.796442,1.348287,-1.455459,3.232741,4.221129,3.707936,-7.97575,-3.446991,-0.263569,2.921786,3.587824,3.660534,-1.836482,-3.742723,-1.007903,1.146546,3.568854,3.543063,-3.751853,-2.563355,2.262407,0.468338,2.95909,3.41922,0.28996,-2.064579,-2.721871,0.296598,1.754147
1b_b3039,0.572605,2.989288,2.41993,2.432074,3.154876,2.540034,3.82216,3.66507,2.466334,2.834842,1.498424,1.894844,2.563249,-5.606413,3.074609,1.989526,-2.785231,1.364761,2.952124,2.575365,-1.884347,1.298259,1.796146,1.606827,-2.442001,0.822285,1.278346,2.735867,2.426682,2.607244,4.539495,-0.269721,0.872717,2.398849,3.318509,4.25246,4.458649,-2.02986,0.595438,0.129287,3.106883,2.370891,-3.212096,-2.25388,-0.925737,1.280106,2.487039,0.742628,-4.309102,-2.577783,-1.155948,1.632601,2.895786,5.561672,3.860212,-3.858789,-4.87685,-3.676673,-1.963285,1.576039,3.693608,-3.127336,-5.146396,-3.622828,-1.799433,-1.297536,-0.371443,-4.500076,-3.487189,-2.335628,-2.174885,-3.066224,-3.575921,-2.877331,-3.439961,-5.189978,-1.662363,1.592263,1.574732,2.605146,-1.292926,-2.063667,-2.113226,-2.927657,0.611238,1.754387,3.028248,-4.535267,-3.250139,-2.481489,-0.31581,2.001229,1.997558,-5.130426,-4.538637,-1.260485,-0.498651,1.218626,-4.416118,-4.724971,-2.197827,0.813721,2.043066,2.34193,3.948879,3.717738,-5.177312,-1.873411,2.288896,1.759892,3.458438,3.24018,-2.895439,-2.882449,0.1488,1.967455,2.765001,2.460286,-4.410494,-5.303325,-0.623085,0.868243,3.586314,3.145181,-1.755989,-2.140629,-2.665813,-2.618814,1.504212