File,EEG 1-bc_avg_k,EEG 2-bc_avg_k,EEG 3-bc_avg_k,EEG 4-bc_avg_k,EEG 5-bc_avg_k,EEG 6-bc_avg_k,EEG 7-bc_avg_k,EEG 8-bc_avg_k,EEG 9-bc_avg_k,EEG 10-bc_avg_k,EEG 11-bc_avg_k,EEG 12-bc_avg_k,EEG 13-bc_avg_k,EEG 14-bc_avg_k,EEG 15-bc_avg_k,EEG 16-bc_avg_k,EEG 17-bc_avg_k,EEG 18-bc_avg_k,EEG 19-bc_avg_k,EEG 20-bc_avg_k,EEG 21-bc_avg_k,EEG 22-bc_avg_k,EEG 23-bc_avg_k,EEG 24-bc_avg_k,EEG 25-bc_avg_k,EEG 26-bc_avg_k,EEG 27-bc_avg_k,EEG 28-bc_avg_k,EEG 29-bc_avg_k,EEG 30-bc_avg_k,EEG 31-bc_avg_k,EEG 32-bc_avg_k,EEG 33-bc_avg_k,EEG 34-bc_avg_k,EEG 35-bc_avg_k,EEG 36-bc_avg_k,EEG 37-bc_avg_k,EEG 38-bc_avg_k,EEG 39-bc_avg_k,EEG 40-bc_avg_k,EEG 41-bc_avg_k,EEG 42-bc_avg_k,EEG 43-bc_avg_k,EEG 44-bc_avg_k,EEG 45-bc_avg_k,EEG 46-bc_avg_k,EEG 47-bc_avg_k,EEG 48-bc_avg_k,EEG 49-bc_avg_k,EEG 50-bc_avg_k,EEG 51-bc_avg_k,EEG 52-bc_avg_k,EEG 53-bc_avg_k,EEG 54-bc_avg_k,EEG 55-bc_avg_k,EEG 56-bc_avg_k,EEG 57-bc_avg_k,EEG 58-bc_avg_k,EEG 59-bc_avg_k,EEG 60-bc_avg_k,EEG 61-bc_avg_k,EEG 62-bc_avg_k,EEG 63-bc_avg_k,EEG 64-bc_avg_k,EEG 65-bc_avg_k,EEG 66-bc_avg_k,EEG 67-bc_avg_k,EEG 68-bc_avg_k,EEG 69-bc_avg_k,EEG 70-bc_avg_k,EEG 71-bc_avg_k,EEG 72-bc_avg_k,EEG 73-bc_avg_k,EEG 74-bc_avg_k,EEG 75-bc_avg_k,EEG 76-bc_avg_k,EEG 77-bc_avg_k,EEG 78-bc_avg_k,EEG 79-bc_avg_k,EEG 80-bc_avg_k,EEG 81-bc_avg_k,EEG 82-bc_avg_k,EEG 83-bc_avg_k,EEG 84-bc_avg_k,EEG 85-bc_avg_k,EEG 86-bc_avg_k,EEG 87-bc_avg_k,EEG 88-bc_avg_k,EEG 89-bc_avg_k,EEG 90-bc_avg_k,EEG 91-bc_avg_k,EEG 92-bc_avg_k,EEG 93-bc_avg_k,EEG 94-bc_avg_k,EEG 95-bc_avg_k,EEG 96-bc_avg_k,EEG 97-bc_avg_k,EEG 98-bc_avg_k,EEG 99-bc_avg_k,EEG 100-bc_avg_k,EEG 101-bc_avg_k,EEG 102-bc_avg_k,EEG 103-bc_avg_k,EEG 104-bc_avg_k,EEG 105-bc_avg_k,EEG 106-bc_avg_k,EEG 107-bc_avg_k,EEG 108-bc_avg_k,EEG 109-bc_avg_k,EEG 110-bc_avg_k,EEG 111-bc_avg_k,EEG 112-bc_avg_k,EEG 113-bc_avg_k,EEG 114-bc_avg_k,EEG 115-bc_avg_k,EEG 116-bc_avg_k,EEG 117-bc_avg_k,EEG 118-bc_avg_k,EEG 119-bc_avg_k,EEG 120-bc_avg_k,EEG 121-bc_avg_k,EEG 122-bc_avg_k,EEG 123-bc_avg_k,EEG 124-bc_avg_k,EEG 125-bc_avg_k,EEG 126-bc_avg_k,EEG 127-bc_avg_k,EEG 128-bc_avg_k,Cz-bc_avg_k
1b_a3001,-1.242213,-2.159041,-2.492354,-1.473739,-0.823348,0.009142,0.751543,-0.772902,-2.708237,-2.115064,-1.277579,-0.666117,0.371304,-1.209527,-1.870635,-2.110591,-0.150476,-1.392724,-0.952504,0.166111,-0.823436,-1.398179,-1.174168,0.342318,0.284099,0.03973,0.132062,0.613869,0.320855,0.668317,0.542634,0.573362,0.419609,0.36429,1.051014,1.367758,1.833347,0.881755,0.376259,0.380997,0.607338,1.530959,0.910355,1.83978,0.515147,0.706141,0.928878,0.587123,-1.078411,0.220079,0.676359,1.057687,1.347335,1.258247,0.523959,0.096001,-0.040477,0.085471,0.685182,0.87812,1.130266,0.522035,-0.48148,-0.526836,-0.105384,0.837086,0.671451,-0.511918,-0.555798,-0.901739,-0.262587,-0.139577,-0.03619,0.058158,-0.782073,-1.202861,-0.291325,0.213193,1.380642,1.310513,-0.535899,-1.095118,-1.090686,-0.585937,2.048187,2.002966,0.701451,-0.824439,-1.111342,-0.776794,0.291083,1.000257,1.774802,-1.070593,-1.049261,0.162267,0.684226,0.931539,0.026142,0.478971,0.213216,0.575315,1.122317,1.592866,0.916784,0.776594,0.154877,0.415597,-0.325886,0.747274,-0.146715,-1.056205,1.270946,-0.506391,0.038443,-0.065924,-0.678577,-0.749179,-0.774381,-0.431206,-0.610034,-0.888953,-1.807844,-1.350085,-0.6688,-0.473445,0.730592,0.668243,1.010351
1b_a3009,3.259033,3.104239,3.066148,2.79076,2.913248,4.109929,4.045017,5.071544,5.311345,5.410303,4.851638,4.720722,4.353012,6.102851,5.383938,4.068663,4.454678,3.631215,3.023288,2.091274,6.430038,4.145213,3.096919,2.081817,5.23058,3.233868,1.053036,0.721966,0.388197,0.987524,3.344767,0.864703,0.489178,0.335761,0.039211,-0.613783,-1.682319,0.317998,-0.63199,-0.259851,0.363383,-0.214988,-0.462989,-0.264761,-1.298757,-0.51987,-0.08192,-1.375603,-1.870937,-2.88819,-1.574733,-1.491266,3.030939,4.781424,0.938756,-3.216579,-4.309457,-3.308446,-1.4884,0.464555,3.172178,0.396305,-8.405348,-5.873146,-2.558503,-1.73062,0.840892,-4.438572,-4.122223,-1.99278,-1.280038,-1.013795,-3.324131,-3.379061,-3.071555,-3.138566,-3.030965,-2.015008,-0.700938,2.00191,-3.463706,-5.154956,-6.951187,-5.615643,-3.551063,-2.075583,1.536941,-6.991886,-8.497341,-8.490938,-5.784265,-3.498544,-0.065641,-9.049053,-8.905861,-7.172042,-2.3217,-0.401467,-4.08666,-3.535763,-2.58716,-0.002888,0.653842,1.205788,2.174633,4.858766,1.860009,0.650507,1.388016,1.831627,2.670711,3.633243,-1.405001,0.511573,2.469585,2.781854,2.979705,3.463537,-2.454163,0.299002,-0.096203,2.918671,3.139249,3.36957,0.014562,-2.423993,1.922409,1.853034,3.511998
1b_a3010,1.329273,1.815111,2.348008,2.453806,2.138946,1.879755,2.082111,1.691294,1.62764,1.516406,1.377525,2.056541,2.008908,1.339763,1.247987,1.353128,0.45788,1.303462,1.754767,1.344659,1.208497,1.212522,1.468093,1.329242,0.814449,0.830559,1.129645,1.07291,0.756388,1.39382,2.047598,-0.793327,0.498878,1.258265,2.305568,2.329589,2.605605,-1.166131,-0.886281,0.133898,0.022703,1.021702,-1.591039,-0.362339,-1.743261,-0.341088,-0.01861,-2.798216,-2.732656,-2.936987,-2.003275,-1.405543,0.544484,2.734165,1.69838,-4.269791,-3.635846,-4.188049,-4.696717,-1.277898,0.176459,4.814803,-4.799353,-4.406751,-6.087156,-4.194562,0.917887,-4.4281,-3.657155,-1.452374,-1.231977,0.79233,-3.729575,-2.632159,-1.716357,-1.123961,-1.075587,0.276054,3.187074,2.341565,-4.562438,-3.792113,-2.723161,-1.955228,-1.030585,-0.126162,2.299197,-2.848533,-3.181047,-2.535528,-1.199187,1.146731,3.072739,-1.950517,-0.588773,-0.195843,0.096674,1.916981,-4.183331,-3.692124,-0.039244,0.878767,1.573379,2.593472,2.725943,2.207301,-2.093329,-0.049963,2.078944,2.654943,2.179233,2.426819,-1.043536,0.058281,1.521356,2.749059,2.337336,2.357871,-1.838757,-0.228504,1.169333,2.423414,2.341814,2.33687,0.171155,-1.370404,-2.222618,-0.850182,2.315513
1b_a3011,-1.592251,1.139099,4.594825,4.981961,5.369933,5.22861,6.514551,1.598739,4.664598,4.57189,5.098106,5.955432,6.117682,3.30451,4.387894,5.186788,2.681385,5.362442,5.799892,4.640621,3.695474,6.126582,4.762754,4.498933,3.626136,4.500618,3.308383,3.63613,2.930543,3.296828,4.882769,2.495789,1.08631,2.187256,3.18909,3.367317,2.177935,-0.372398,0.164009,2.17943,1.518826,1.342994,-2.051775,-2.725033,-1.520951,-1.80603,0.314388,-0.612177,-2.854735,-2.37313,-0.80705,0.169688,1.332451,3.329825,5.207177,-3.069683,-4.275045,-6.986295,-2.835147,-0.463104,2.768499,-0.994732,-5.901988,-8.606944,-11.0288,-6.446697,-2.999457,-7.643562,-7.94529,-8.665714,-3.84491,-2.158949,-4.193675,-5.946993,-5.973148,-4.046558,0.169031,-1.510721,3.902957,5.078873,-8.036356,-7.76104,-5.347652,-3.898311,0.566664,0.051054,4.027177,-7.524578,-6.119886,-5.728826,-3.072,-0.23855,2.03371,-6.670688,-6.473192,-5.851792,-1.238504,1.048386,-5.623514,-3.772314,-2.766154,0.102369,1.838555,3.597491,4.855839,5.803621,-3.026711,-1.166504,1.434069,2.773433,4.715353,2.736008,-7.160358,-2.936392,0.407631,1.817549,2.259041,3.640489,-2.32063,-3.90186,-2.37789,-0.648484,2.968763,4.226896,-1.658327,-1.853748,-1.804701,-0.148329,6.03018
1b_a3012,-0.800694,0.649041,0.098631,1.338567,2.065301,2.621273,3.534844,0.124149,0.370148,1.301222,1.009614,1.68405,3.029772,0.238613,0.849537,0.88029,0.04248,0.635051,2.220868,2.626506,-0.581083,0.007718,0.476339,2.78512,-0.049495,0.491266,1.011034,3.209871,3.187542,3.313088,3.380374,0.227483,1.289637,1.444715,3.095692,3.596101,3.220376,0.006656,0.817389,1.457973,3.130625,3.392753,0.179035,-0.873553,-0.114341,1.569395,2.015439,-1.625467,-0.928944,-1.437847,0.262143,1.181559,3.041102,2.987163,3.453771,-2.11354,-2.378951,-2.264104,-2.819132,0.892038,2.62268,2.193172,-3.174531,-4.057044,-4.170261,-2.556654,-0.396767,-4.163158,-3.968705,-5.602263,-1.755106,-1.402152,-3.473838,-4.896269,-5.852043,-3.526679,0.716695,2.612486,3.285042,3.620172,-4.019546,-5.511939,-6.222569,-3.867105,1.252332,2.895104,3.551085,-4.573227,-5.991983,-5.917004,-2.613898,0.47881,2.127664,-4.689199,-5.641323,-5.82405,-1.897146,0.197561,-5.170509,-5.633495,-5.561016,-0.3414,1.625183,3.52996,3.147758,3.094199,-4.362253,-1.625743,0.932561,3.024949,3.940172,3.185684,4.394449,-1.048654,1.182964,1.333029,3.175912,2.642853,-3.384495,-0.844698,-0.530001,0.215455,0.589518,2.128397,4.394449,-1.729268,-0.895289,-0.049658,4.394449
1b_a3017,-0.003384,-0.857571,0.321002,8.006897,0.949569,2.816878,-4.149708,-4.452483,-3.127273,-1.964824,-0.852203,7.909324,-4.013111,-5.900699,-7.601357,-1.520962,-8.933992,-1.622067,2.145218,-2.140378,-7.273962,-2.561191,3.33523,-0.563142,-5.886958,-1.088318,10.209249,-2.958428,-3.165186,-2.355418,0.71985,0.200018,-4.691998,-0.126152,5.82155,3.931629,-8.939903,19.090752,-5.97438,4.664603,3.317637,3.839538,6.477226,2.662885,3.633076,3.627823,3.005884,8.899776,4.86884,-1.250354,5.384037,2.609997,-5.446174,-1.410998,4.284784,-1.654087,-3.328576,1.384004,1.382769,-3.50934,8.764924,-0.424414,0.203998,0.761879,-0.469036,-7.738005,4.011991,4.538987,-0.041527,-0.881146,-4.668,2.998781,-0.510723,-0.276,-0.535132,-4.935071,0.736229,-3.630411,0.959236,2.345622,-0.586474,1.937884,-2.301035,-1.839447,-0.046597,0.704401,1.251676,-2.529175,-2.124677,-1.716065,0.471243,0.155521,0.817952,0.541296,-8.148251,-2.119072,-1.145599,4.694604,-9.963997,-14.651884,22.564627,-1.503011,3.560395,1.537448,-2.283425,-1.232298,-12.263905,1.815175,1.021421,3.269569,7.372015,1.886454,-10.512304,-7.209585,-1.773385,7.395004,6.136438,6.758809,-6.242279,-6.854785,-3.384029,1.219062,3.672408,1.795213,-3.067421,-0.154517,8.481898,-3.552259,0.757302
1b_a3018,3.721145,4.208847,5.194845,3.595608,0.073491,1.653312,2.159318,6.270137,4.705203,3.939228,2.415532,2.026408,2.365949,6.280396,3.951516,4.906831,3.980181,2.376714,1.998152,1.801804,4.7586,3.057427,1.933831,1.796545,3.598287,2.224305,1.689577,1.712845,1.756385,1.729265,0.930278,3.211888,1.533854,2.186033,3.318524,2.587636,0.804713,1.844141,1.24597,0.960161,1.09599,0.46854,3.504844,-1.484616,-0.498557,0.008897,0.016343,0.733131,0.160034,-3.938283,-3.859056,-3.057558,-0.987481,-0.88572,0.074722,-1.314701,-3.543918,-5.995097,-5.246285,-3.99269,-3.541197,-4.498836,-4.597182,-4.198207,-6.064853,-5.122592,-6.15633,-6.341272,-5.524839,-5.795057,-6.612772,-3.712277,-5.33291,-5.358273,-5.125662,-4.003117,-4.032347,-1.619466,-0.060797,0.726675,-4.243211,-4.466355,-4.402605,-3.882933,-2.892257,-0.424549,1.098386,-4.094327,-3.900047,-4.305115,-3.284767,-1.920596,0.706708,-3.888495,-4.20998,-3.456797,-2.81148,0.051592,-2.671077,-0.228613,-1.581195,0.373252,1.712505,2.780442,3.211867,2.459455,0.162744,0.376523,1.680265,2.877563,2.909044,2.768673,0.747025,1.778527,1.750283,2.542162,3.339827,3.311237,0.562643,1.508782,2.49909,3.006744,3.419944,3.356461,2.180943,2.14897,2.608289,2.483623,1.458712
1b_a3019,-3.5562,-5.197901,-3.103534,-2.453527,-1.330382,-1.944111,-1.642938,-5.1948,-4.173216,-2.900515,-0.154961,0.159301,-4.045929,-4.879181,-3.458932,-1.601743,-4.693729,-2.241421,-0.936968,1.320544,-3.379504,-1.320418,-0.444677,1.674093,0.192853,1.879721,1.667116,1.328006,-6.315316,-4.049572,-2.781343,2.763584,0.945283,1.659793,-3.691284,-3.735158,-3.088873,1.228071,1.341753,-4.882797,-4.61202,-4.577601,1.157433,-0.521384,-4.63537,-4.591153,-3.711906,-0.072733,-1.067978,-2.340995,-2.076612,-2.558626,-0.694573,0.504423,2.274944,-2.511867,-1.464217,3.946028,3.309162,3.539998,2.564675,6.280952,0.148185,0.186981,3.266596,3.734448,2.221558,10.369625,7.027789,3.986182,3.213297,6.867788,4.255486,3.460512,3.517965,5.603534,5.56905,0.714822,0.095643,0.920643,-2.087943,2.564421,5.731435,2.664829,0.203134,0.355313,0.694971,3.103302,2.66914,1.969337,1.126502,-0.456358,0.182662,4.913691,1.939798,0.964696,0.298975,0.819066,2.150094,0.282651,0.345414,-0.600675,-0.281771,-0.260323,-0.224288,0.668602,0.201827,-0.89379,-1.369233,-0.488305,-1.051744,0.164664,0.976779,-0.800542,0.396776,-0.22125,-0.369122,-0.736673,1.416533,0.66319,-2.31871,-3.523452,-0.507159,-1.66547,-1.383227,-0.938175,-0.516438,0.203961,0.761013
1b_a3020,-1.348605,1.572898,5.099244,5.895389,5.893949,6.21268,-0.46686,3.496418,5.55277,5.765749,6.219469,6.542275,7.078198,6.758679,5.593302,5.442161,4.939075,7.065399,6.867411,5.958086,6.151723,7.370589,6.920079,6.325294,11.639525,4.045141,5.703762,4.90024,4.752314,0.288851,3.053652,0.31589,1.278772,2.458177,1.192061,1.282102,4.619283,-2.483304,-0.477724,0.134914,1.416132,3.041635,-5.317539,-2.774032,0.519619,1.289244,2.594064,-7.40863,-5.246806,-0.210482,-0.583109,0.398688,0.912667,3.121792,-1.817372,-2.484699,-1.97133,-2.487021,-2.195727,-1.900693,-3.971682,-4.608361,-3.483012,-3.565613,-3.730353,-4.05855,-2.913555,-5.509733,-5.267681,-5.101318,-4.716619,-2.421655,-5.13528,-5.02738,-5.181552,-4.075294,-3.333372,-3.275034,-0.526908,2.988875,-3.614573,-3.826938,-4.58623,-4.237527,-3.201509,-0.46131,3.321864,-5.065367,-6.989474,-4.254899,-1.694611,-1.133449,2.198791,-6.157222,-5.719372,-3.947425,-1.267754,0.02567,-5.016584,-5.727969,-3.477422,-0.879021,-0.315942,2.807343,2.756448,4.046947,-5.267429,-4.356304,0.075991,1.902961,2.987113,3.95719,-6.110337,-6.117067,-0.869153,0.857985,2.18749,3.793861,-4.531653,-3.817199,-3.173004,-0.247115,2.320206,3.939975,-3.139944,-2.560222,-3.583255,-2.224675,4.800764
1b_a3025,0.806353,4.394787,8.882255,8.842487,7.545314,7.676869,7.358236,10.364111,7.110992,7.065649,6.571707,6.166009,5.771733,7.733726,6.835035,7.200124,8.779806,7.524598,6.325171,4.433296,9.67931,6.030692,4.567098,4.346286,7.848161,4.151823,3.167411,1.670065,3.327098,4.295804,4.76792,2.554474,1.369116,0.816565,0.678988,1.940503,2.63237,0.002633,-0.620967,0.337895,-0.274144,-0.219156,-2.821808,-2.589003,-3.843479,-2.699949,-0.918279,-4.06008,-4.908954,-5.686145,-2.955598,0.32837,0.201217,1.299631,0.313724,-6.737052,-7.319089,-6.224391,-4.090923,-2.600269,0.252871,-1.490681,-7.759941,-9.966461,-7.767648,-6.6078,-4.946047,-6.148969,-5.497306,-4.193555,-3.780084,-2.556129,-5.060549,-3.931798,-1.151546,-0.946167,-0.598138,0.251855,-0.271458,1.521752,-4.908486,-6.100535,-5.050467,-4.522614,-3.35137,-1.857113,0.749505,-4.522977,-5.90021,-6.339257,-4.099767,-2.211384,-1.229641,-8.719205,-8.349171,-5.668659,-2.888984,-1.456714,-7.542203,-6.210719,-4.486448,-1.321328,-0.061491,0.966855,1.879383,6.869643,-6.854486,-2.343465,-0.141101,0.829679,1.94682,7.952843,-3.129927,-1.945067,-1.88051,-0.349532,2.031867,8.126123,0.488673,-1.309476,-1.457855,0.56877,2.064499,8.448094,-1.527687,-2.050772,-0.378565,0.247972,2.498143
1b_a3026,2.545788,2.279886,1.593271,3.963154,3.756843,2.276286,3.4422,-2.752986,-1.12004,0.012479,2.515777,1.806837,1.032543,4.044586,-1.790547,1.460371,-1.483795,1.052422,1.614985,0.993773,-2.791641,0.489769,2.832156,0.820082,-0.274722,0.310628,0.452703,0.565525,0.83995,0.782502,0.470435,-0.221693,0.085148,0.06257,0.262876,0.456839,0.177256,-0.81339,-1.315698,0.06341,-0.117496,0.073646,-2.709675,-1.029812,-2.627999,-0.692808,-0.517595,-0.441701,-1.470972,-1.915245,-0.987881,0.270597,1.13255,-0.270792,-0.169145,-1.827662,-2.931695,-2.897219,-0.803146,-0.007664,0.063917,2.430856,-1.199388,-2.894768,-1.208622,-0.346803,1.434259,-1.054336,-1.104146,-0.251624,0.032151,1.581239,-1.068588,-0.914233,-0.183486,0.277488,0.744933,0.627473,0.498894,0.373912,-0.787074,-0.672342,-0.071086,0.093861,0.795964,-0.064374,1.124299,-0.110814,-1.398612,-1.042662,-0.769234,0.473473,0.36471,-0.7208,-2.769306,-2.270644,-1.158968,-0.445056,-3.190147,-3.287224,-2.259617,-0.220356,0.308335,1.837561,2.044261,4.213017,-3.829077,-0.953479,-0.554207,1.891457,0.473946,3.19378,-5.279386,-0.960326,0.95754,0.201666,-3.45353,1.284943,-0.319792,0.537718,2.265778,-0.073539,3.737164,3.366535,0.283668,-1.484899,0.402016,-0.853906,0.752816
1b_a3027,1.393279,2.820163,2.821326,3.176175,3.27207,2.407212,2.850338,5.509233,4.470133,3.570885,3.218721,1.489484,2.048247,4.095493,4.543812,4.138413,6.864013,3.842433,0.652546,1.306844,4.447601,4.241828,3.512248,0.947029,3.175552,1.822764,0.764825,1.317559,0.607886,0.873438,-2.919917,1.593876,1.322008,0.93546,1.22613,0.561712,-2.495792,-0.927853,0.18432,0.433412,-0.602971,-2.584799,-1.20246,-0.539249,-0.366026,-2.03606,-2.569491,-2.064048,-0.984793,-2.84209,-1.777823,-1.118399,0.786393,3.703036,2.757627,-0.821509,-3.10475,-6.302066,-0.69561,-1.813281,1.889039,4.594222,-4.132036,-4.276552,-2.016747,-0.470783,1.461281,-3.697262,-4.986656,-3.644361,0.074834,0.436774,-2.473121,-2.362054,-1.907079,-0.333429,0.232857,1.1757,0.964029,4.059929,-4.00295,-3.598073,-2.739727,-1.877591,-0.804491,-1.928033,0.45265,-3.066734,-3.219627,-1.784454,-1.327489,-2.581089,-0.059863,-3.083593,-6.774658,-5.936738,-2.590785,-0.75081,-5.468065,-1.481281,-1.308084,-0.958245,-0.132221,1.143036,1.552602,3.75914,-1.663329,-0.544211,0.117022,0.528396,0.971056,2.825575,-2.546266,-2.750842,-0.144978,0.110342,1.346746,2.126126,-1.517899,-1.118988,0.54268,0.444514,1.52754,2.005513,0.186874,-2.089975,-1.063443,-1.143098,3.892695
1b_a3028,2.819026,4.745509,6.282754,5.700695,6.784885,6.77794,6.231905,4.650564,5.412411,6.452172,5.814833,7.040132,6.43605,5.10714,5.123652,5.575268,4.403987,5.449571,5.661392,5.830057,4.16869,4.311691,4.590691,5.380617,4.692909,3.988071,4.986333,4.781738,4.879227,4.230217,5.804981,1.197469,1.697516,2.296911,2.5577,3.807885,3.342434,-0.547073,-2.332015,-1.136253,-0.529791,0.452263,-1.1571,-2.26792,-5.97857,-5.6068,-3.654617,-1.85068,-2.671114,-10.479961,-8.446157,-3.604619,0.941719,3.809879,4.913348,-4.187593,-8.779953,-13.700751,-11.725528,-2.766555,1.711889,1.454128,-4.278586,-8.686316,-14.090372,-8.348736,-0.322817,-4.761613,-6.393056,-10.314459,-4.308754,-2.157776,-4.868303,-6.872973,-7.061061,-6.26301,-2.895253,1.699841,3.107194,4.687249,-5.377481,-7.706063,-8.85834,-6.412266,-0.919643,1.099618,3.542424,-6.994043,-8.852903,-11.566424,-5.682,-0.664839,1.745725,-4.991176,-7.312424,-8.250669,-1.282352,0.135954,-4.863318,-6.385917,-5.008408,0.206614,1.676457,3.981625,4.794418,7.032302,-3.495038,-1.947809,2.07521,3.862152,5.494356,7.248384,-2.202273,-0.356382,1.282365,4.599165,6.726745,6.386531,-0.908658,-0.320345,1.159902,3.915362,5.00777,5.334642,2.445335,2.505239,2.805909,0.405002,6.143152
1b_a3033,2.050402,8.770103,2.802932,2.190264,0.832203,2.359592,1.01785,16.303871,5.314846,2.833496,1.479984,1.557437,-0.553541,7.795633,5.148201,2.640598,9.490658,4.825057,2.983226,0.063344,9.870972,6.799541,4.197326,-0.825012,5.650985,-0.312391,-1.895084,-0.569113,-0.248447,-0.6311,-0.006757,-1.726427,-3.125511,-2.00095,-1.268014,-0.994599,0.455636,-4.921968,-2.799952,-2.160808,-0.658319,-0.588121,-2.581867,-4.133139,-2.901536,-1.716191,-0.899302,-4.305192,-3.27662,-1.213672,-1.413524,0.677407,1.567496,0.865928,0.568222,-1.341875,-1.098171,-0.168865,0.955218,2.188165,1.930942,4.528379,-3.334474,-0.293611,-0.993752,-0.988807,-0.905355,3.94452,2.109762,-2.300184,1.614489,2.437368,-1.076184,-2.034182,-1.446664,-1.5151,-2.636823,-0.111438,-0.551647,-1.022749,1.725783,-1.83172,-2.673004,-2.213295,1.057089,-1.123182,1.06939,1.951125,-3.048085,-6.086725,-3.023996,-1.161094,-0.305834,3.745451,-3.934002,-2.925845,-2.209531,-3.341789,-0.702583,-2.599112,-2.079531,-1.605239,0.468292,0.571553,-0.009678,2.87162,-2.596128,-2.84726,-0.346436,-2.036067,-1.182912,-1.380774,-3.899135,-1.644555,-2.121057,1.381336,0.969687,-1.456897,-3.53601,-3.576844,-0.810548,0.836369,2.815774,1.10136,-0.586547,-5.966264,-4.298518,-4.678562,1.998919
1b_a3034,-2.670579,0.751035,1.840068,3.95357,4.058602,1.511558,0.553315,-0.133961,5.676916,3.627313,5.404095,1.693844,-0.850255,2.580845,5.837751,3.306342,2.403046,5.354674,4.753245,-0.284138,3.820939,5.727455,4.585318,2.48046,0.562828,-0.350585,-0.11845,-4.110956,-1.002576,-1.237269,-1.392204,-4.075428,-5.976064,-1.654349,-1.891266,-1.237441,-1.480904,-3.709264,-1.681592,-1.286696,-0.880404,-1.752151,-3.10012,-2.446145,-2.048478,-1.760836,-2.23117,-1.123988,0.398519,-0.981104,-1.466564,-1.917831,-0.848161,-1.493478,-1.722928,-2.16633,-0.787045,-2.327428,-2.527759,-1.180715,-2.107124,-1.675568,-3.948193,-4.077,-3.591693,-2.938024,-2.677247,-3.231884,-1.243876,-2.057633,-1.845607,-1.582617,-0.4948,-1.487921,0.469967,-0.279937,0.852374,-0.495367,0.271211,2.362869,1.981718,3.722866,-0.615646,1.404981,-1.544195,-0.271739,3.686345,5.233483,-0.526776,-2.471074,-4.99145,-0.303117,2.84447,1.27121,-1.394735,-7.600205,-0.314551,2.034027,-1.682982,-1.809767,-1.080465,0.794484,2.22694,3.700174,3.671077,3.530364,-1.722334,1.371164,2.27993,2.419849,3.912091,5.196931,0.111627,1.931678,0.710551,6.295722,2.015171,4.166853,1.153163,0.017826,-5.337662,0.991067,-0.126789,2.620138,-4.458566,-1.817476,-2.238736,-4.330883,0.146186
1b_b3005,-2.939251,2.497055,0.060792,3.178901,5.534762,5.154795,5.715355,-2.197303,-4.077712,-3.166684,3.036111,4.303967,3.025344,-3.062834,-2.256182,-0.989803,-0.994416,-0.347167,3.143586,0.810804,-2.9267,-3.448846,-2.860267,-0.674832,-3.74131,-3.86266,-4.990431,1.158737,5.422769,6.005719,5.399066,-1.648824,-0.369039,0.928793,5.060342,5.21577,6.420006,-1.215473,0.457558,5.000412,4.920463,6.112934,-2.846813,-2.125316,4.072899,5.502051,5.720556,-2.765135,-3.335246,3.399135,3.250437,2.21699,1.12229,-1.43456,-1.506917,4.21042,4.108695,-5.78557,-4.401165,-1.671461,-2.306432,-3.477553,-6.375457,-5.883719,-6.45093,-5.778855,-4.702822,-0.707773,-0.897971,-1.375255,-1.313231,-3.074384,-5.783117,-6.402731,-1.95549,1.510665,0.156707,-2.04338,4.856318,6.09375,0.204944,0.589436,-1.921703,2.991408,0.746461,4.782459,3.71034,-5.596364,-3.745271,0.020973,1.299153,1.364981,3.067387,-4.656002,-1.703645,-0.37392,1.636417,0.393667,-0.173449,-2.409576,-2.152089,-0.446624,1.211611,4.278829,5.109832,4.043874,-0.770986,-3.300384,-0.791966,2.66273,5.277835,3.536545,-3.57484,-5.659862,-3.301933,-1.835398,5.274761,3.858261,-3.644564,-5.578296,-10.483517,-3.108929,4.865904,3.796199,-3.026403,-3.035998,-1.354377,-1.982575,5.29072
1b_b3006,-0.992188,0.677526,1.14262,1.061682,0.722757,3.293936,1.837339,2.045007,1.085524,1.131461,0.869711,0.744086,1.17985,1.396987,0.5053,1.771488,0.918025,0.749861,0.646129,0.744582,0.328584,1.090555,0.925215,0.702121,0.398936,0.341298,0.416613,0.73945,1.150508,2.129045,4.371464,-1.467911,0.087041,0.65004,2.125942,2.912634,5.458574,-2.364035,-1.259471,-0.071054,1.638485,0.448955,-0.089647,-0.241606,-2.771521,-1.075028,-0.018496,-3.192886,-4.505845,-2.864026,-1.903369,-1.152181,4.616275,7.368245,4.425456,-4.20828,-5.021255,-5.20952,-1.340004,2.012303,3.970449,3.442404,-6.386715,-6.540426,-3.710363,-3.352118,3.469525,-4.729142,-4.680233,-2.820517,2.591218,3.085741,-7.074848,-3.805519,1.728112,1.973497,2.592866,3.74133,5.036483,6.294956,1.326422,1.21188,0.685359,-0.328903,1.596026,3.311084,3.957977,1.084853,-1.859275,-1.443871,-0.841952,-0.289804,2.751376,-2.173236,-2.541618,-1.942651,-2.096262,-0.207106,-2.933696,-3.05283,-3.11704,-1.79696,0.055722,0.562785,2.912726,3.819638,-2.927632,-2.179794,-1.396476,-0.121173,-0.401797,3.497985,-2.67249,-2.11618,-2.238114,-0.97628,-1.303049,-0.957533,-1.57525,-2.62883,-1.781655,-1.326995,0.389437,0.993837,-2.665489,3.425146,-3.393523,-2.696103,4.461328
1b_b3007,2.502288,3.156312,2.9167,2.606526,2.571515,3.622327,2.546392,2.892711,2.572395,2.383804,2.140079,2.398716,2.667753,2.386952,1.834602,1.842106,0.541384,1.448722,2.386209,2.181468,1.796374,1.241946,1.885498,2.015692,0.431479,0.434239,1.175208,2.162713,2.42367,2.123785,2.524672,-1.193957,-0.397115,1.174566,1.401774,2.744945,2.935735,-0.597631,-0.910563,0.371423,0.634838,0.514973,-0.432504,2.560869,-3.156995,-1.226221,-1.289877,-4.469007,0.043259,-4.809008,-3.016895,0.497203,3.130425,2.459795,2.773992,-6.391111,-3.325029,-4.738492,-1.440237,0.811104,1.744274,0.857715,-6.096666,-5.844281,-5.499729,-2.235159,-0.042431,-6.331914,-6.437444,-4.748074,-1.07651,-0.389313,-5.045912,-9.75987,-4.610603,-1.740926,0.504923,1.710586,2.49134,2.656738,-5.696601,-5.807008,-4.531065,-2.39063,0.162575,1.949485,2.840163,-2.495375,-5.181453,-5.229801,-3.026666,1.200753,1.913584,-3.817553,-4.632468,-5.057618,-1.317856,1.332222,-4.193705,-3.792404,-2.819659,0.560408,2.088082,2.589091,3.320513,2.847217,-3.155124,-0.890597,1.190497,2.745774,3.525854,3.066071,-0.201075,2.560873,1.044855,2.006403,3.190734,3.488586,1.940038,-0.552452,1.435198,2.519572,3.256457,2.923978,1.844293,2.560869,2.560869,-1.018018,2.560869
1b_b3008,-0.379115,0.639602,1.44799,1.652223,2.260288,2.838666,2.411007,1.760327,1.659763,1.992401,2.181968,2.509036,2.499999,1.631299,1.948407,2.060423,1.811529,1.860245,1.937491,1.912304,2.198815,1.801193,1.615068,1.174028,3.459324,0.678704,0.679249,0.790414,2.342858,2.48317,2.645479,0.033245,-0.407701,0.507473,0.755425,1.342536,1.802912,-0.605656,-1.011856,0.143607,0.7986,1.029403,-0.542278,-1.106213,-1.135572,-0.260628,0.2653,0.997597,-1.182456,-1.930882,-0.277406,0.566857,1.244519,2.068231,2.141556,-3.742938,-4.328788,-1.250527,0.302143,1.049406,1.359464,1.431562,-4.301276,-4.557245,-0.258762,0.618531,1.356721,-6.215524,-3.89825,-0.812446,1.142925,0.963687,-4.433522,-4.245069,-0.552433,0.55761,0.722481,0.988435,1.219752,2.055206,-4.552835,-3.297109,0.308532,1.076492,0.914667,0.260964,1.270664,-4.617175,-3.192868,1.434141,0.42724,-0.089303,0.042865,-3.905009,-2.820491,0.010827,-0.807265,-0.177232,-4.181095,-4.918276,-2.119104,-1.510723,-0.208423,0.847295,1.445967,2.553464,-3.860106,-3.176261,-1.401248,0.01807,1.041845,2.471936,-1.816534,-1.731301,-1.89818,-0.817917,0.837289,1.758372,-2.330883,-1.827011,-0.607767,0.295683,0.716748,1.435942,-0.787936,-0.703729,-0.377599,-0.9548,2.607269
1b_b3013,1.508673,1.847088,0.318927,0.822537,1.110475,0.328346,1.228895,1.812326,0.058483,-0.255893,-0.417797,0.341229,0.453347,0.982047,-1.114967,-1.241534,0.235309,-0.2967,0.817328,0.756365,1.56898,-0.715744,-0.927428,0.429621,3.482649,0.1192,-0.270045,1.212846,1.37277,1.191141,1.468377,-0.198071,-0.037546,0.126587,0.96616,0.700085,1.317564,-0.165089,-0.868733,-0.74475,0.33226,0.959897,-0.699956,-1.90478,-1.266607,-1.087251,-0.348777,1.899619,1.902023,-2.697796,-1.776298,-0.739717,1.432706,2.031915,2.452482,-2.924102,-0.099175,-2.572856,-1.190133,1.160825,1.784408,2.243036,-2.022832,-1.669842,-2.37573,-1.047674,1.426748,-2.847015,-2.053339,-0.73261,2.224021,2.421759,-2.610059,0.089194,2.167758,0.935769,0.707446,1.789573,1.741877,2.177337,-2.006643,-1.091268,-0.263191,-10.868322,0.184556,1.345624,1.830249,-2.574112,-1.625066,-0.317418,-1.329028,0.061366,1.21566,-2.869427,-2.812275,-2.509846,-0.99639,0.156492,-4.97184,-4.943907,-2.137174,-0.269243,0.093397,1.38695,1.240774,1.699077,-1.522915,-0.828322,0.121953,0.813482,1.618078,1.686726,1.899619,-0.228783,0.534668,-0.009904,1.108965,0.355814,0.677753,-0.023533,0.980877,-0.868586,0.129345,0.036144,0.316776,3.04625,2.416245,-0.32642,1.899619
1b_b3014,-1.731766,-1.013048,0.983303,1.435289,1.778326,1.799916,1.836473,0.568793,1.648219,1.69152,1.475784,1.312524,2.518297,1.420954,1.85071,1.533353,1.329048,0.481304,1.52666,1.43844,1.680985,1.0853,1.351947,1.530611,3.482529,-0.906615,0.782366,1.525574,0.832274,1.256168,2.144121,-0.510629,0.293705,0.094387,0.25865,0.940681,2.164026,-2.183881,-1.722401,0.233923,0.102535,0.713306,-1.23103,-2.515106,-1.487597,-0.554681,-0.053266,-1.773847,-2.909025,-2.561266,-1.969764,-1.399414,1.399313,1.67644,2.489235,2.17719,-1.18546,-1.748281,-1.0307,-0.650191,0.264271,0.172947,-2.084034,-2.354386,-2.627425,-3.57306,-1.154677,-2.075706,-1.406095,-4.130781,-1.761682,-1.167369,-2.478467,-2.561413,1.621235,0.295879,0.772294,2.401585,2.60435,2.800997,-2.969078,-1.487255,-1.292541,0.533945,0.650839,1.372791,1.994857,-1.440216,-1.519046,-1.261297,0.151901,0.942762,1.266399,-2.697924,-2.477687,0.030265,1.476912,0.208431,-2.029088,-2.328204,-1.655547,-0.802187,-0.149242,1.669007,2.583856,2.990603,-1.591573,-3.916917,-0.847759,0.554345,1.379854,2.437438,2.177113,-0.033603,-2.289694,-1.145548,0.616847,1.620688,0.011831,-2.141484,-0.505536,0.055429,0.811575,1.168554,-2.673965,-1.534023,2.177113,-1.535729,2.177113
1b_b3015,0.706008,0.393047,0.643047,-0.446495,0.555722,1.179087,1.127935,-0.562402,-1.146751,-0.952501,-0.370811,-1.037325,0.841401,-3.567983,-1.503148,-0.917774,-2.137075,-1.372335,-0.940926,0.191626,-2.27761,-1.786677,-1.262708,-0.061994,-2.273596,-1.109705,-0.111222,1.050922,0.989182,0.917103,0.93265,0.331405,-0.009847,0.416778,0.952413,1.131229,0.726824,0.33308,0.499342,1.156559,0.8128,1.273681,0.519319,0.977423,1.18431,1.346497,1.043295,2.623157,0.813892,-1.242105,0.651798,-0.864319,1.084192,0.401797,0.639996,0.490972,-0.250275,-0.094155,0.172185,0.06065,0.528573,-0.202935,-0.403297,-0.440921,0.786816,0.136868,0.262287,-0.159717,-0.005946,-0.046893,0.025058,-0.479052,-1.476041,-1.552324,-1.415603,-2.077967,-2.009022,-0.098721,0.602954,1.32124,-4.669554,-2.117537,-1.097599,-1.16338,0.380399,0.591475,0.916019,-3.421757,-1.517367,-1.084856,0.259139,0.048543,1.018307,-2.351402,-2.222637,0.294067,-0.377314,0.860533,-0.11051,-1.986184,-0.745025,1.148112,0.732512,2.075834,2.074372,1.665621,-1.217062,-1.150641,1.436388,1.276607,2.198807,2.099043,0.530644,0.363123,-0.421127,-0.265123,1.652308,1.220793,0.07086,0.800753,-0.133716,-0.223618,0.302678,-0.882307,1.604342,1.861926,1.723668,0.909711,0.875186
1b_b3016,-2.474015,-5.324847,-2.560422,-0.331171,-0.076003,2.862201,2.092074,-8.903653,-2.913005,0.507031,-0.501454,0.783522,1.293526,-4.94967,-0.810823,-0.232827,2.641968,-0.236752,0.130207,-0.03071,-4.833501,0.101945,0.780278,1.101198,2.641921,-0.789931,1.709118,1.297965,2.209532,1.223192,2.194349,2.248703,2.009482,2.018413,1.683215,1.015752,1.27569,1.519404,-0.332008,0.305909,1.416152,1.60859,1.075994,0.061498,-0.953934,-0.342141,-0.405142,2.641968,-0.591495,-3.228749,-0.585845,0.508544,1.891779,1.678457,1.425286,-3.120591,-2.282365,-1.339435,-0.57578,0.723513,4.871407,1.486834,-0.210053,-1.644163,-1.275379,-1.171792,-0.903935,-2.525856,-0.579927,-1.055197,-0.178811,3.142145,-1.538212,-4.000735,1.462591,1.598888,2.789667,2.412755,2.490319,1.165866,-2.156687,1.984147,1.61663,-3.844164,1.410648,2.222376,3.010171,-1.236223,-1.772295,-0.837824,-0.230274,1.570668,2.041964,-0.689938,-2.347308,-1.563712,0.322131,0.41259,-5.360607,-3.371781,-1.109956,0.269605,0.535531,2.886329,0.568306,1.59851,-1.980852,-1.011936,0.033659,0.873325,1.350756,1.508088,-0.284029,-1.933532,-0.991132,0.05697,-0.771254,-1.341942,1.311603,0.24094,-0.232508,-3.967515,-2.258246,-2.575058,1.105941,2.738899,0.904751,2.36374,2.641968
1b_b3021,-0.431766,1.538616,2.871248,3.939095,4.149685,4.843791,4.706578,0.68666,2.445188,4.166673,3.819506,4.091235,3.899496,2.441279,3.423301,3.65083,2.534047,3.158527,3.989356,3.40756,2.700474,2.757721,2.458644,2.600708,1.382038,1.302492,1.777857,2.493402,2.852928,3.138629,4.097097,-0.568292,0.562513,0.805569,1.422195,4.048863,3.161575,-2.439369,-0.819848,0.180854,1.018566,1.572018,-0.920366,-1.95753,-2.391302,-0.165534,0.648731,-1.87435,-4.109909,-2.619397,-1.579004,0.128332,2.419172,3.238455,4.084663,-9.569748,-4.750735,-3.534765,-0.05012,1.359893,2.446807,2.465608,-6.685092,-6.443959,-3.058162,0.711072,2.162888,-6.429268,-5.790826,-1.489413,1.714157,1.868366,-5.957541,-3.924501,-0.319891,0.989032,1.408105,2.777226,3.991641,4.806674,-6.142492,-4.342714,-0.558059,0.1904,1.860575,3.35637,4.658966,-6.66498,-6.85176,-3.087183,-0.493337,1.080294,2.328523,-7.95376,-9.104208,-5.436679,-0.840499,0.40676,-8.623695,-9.685852,-5.515194,-0.395004,0.98143,3.114375,4.1369,4.970109,-8.157102,-4.887416,-1.278493,2.072103,2.868988,5.157665,-4.274885,-2.993204,-3.800961,0.333806,2.121219,3.76849,-3.092311,-2.84387,-1.706605,-1.220602,1.478383,2.969264,-2.131367,-1.331946,-1.043549,-1.908933,5.075096
1b_b3022,1.324753,1.824887,-0.080529,0.309447,1.704248,1.476744,2.48863,-2.717657,-0.592847,0.896081,1.049455,1.494164,2.604053,-1.273607,-0.065703,-0.199225,-0.70604,0.357164,1.233658,1.832502,-0.495013,0.80475,1.478185,1.622936,0.661405,1.195034,1.481979,1.77753,2.095356,2.586248,-0.462757,1.52114,1.790955,1.319594,1.980039,2.020741,1.712956,0.998437,1.360435,1.653884,1.801426,-0.360754,2.374446,2.057184,-0.267342,-0.415052,-0.343005,2.97649,1.026854,-3.429515,-1.855574,-1.851102,-1.682813,-0.953128,1.393994,-2.715085,-2.870206,-2.205154,-1.54252,-1.363699,-0.448163,0.760479,-1.583828,-1.074324,-1.606922,-1.427717,0.72151,-2.497596,-1.64617,-0.204624,0.777002,1.51419,0.63523,0.704269,1.091009,-0.016676,2.084,1.14693,0.175133,0.83325,-0.859307,-0.469521,-0.740226,-1.970226,-1.279371,0.333677,0.149642,-0.687051,-1.436896,-4.473628,-1.857182,-1.362884,0.685313,-0.812798,-4.454686,-2.862099,-1.290686,-0.203272,-3.23125,-3.085391,-3.131097,-1.461865,-0.154543,0.900157,0.723573,-0.313951,-2.00766,-1.291227,-0.807376,-1.164253,0.961443,0.681432,-1.32929,-1.718656,-0.855246,0.162723,-0.061271,0.611945,-0.767358,-0.132827,0.605771,-0.133856,0.392107,0.789262,2.1447,3.434688,0.685279,1.752418,1.616374
1b_b3024,2.737298,3.246635,4.367925,4.555596,4.173923,4.360654,3.797351,4.716559,3.973157,4.051552,4.109406,4.361378,3.722199,4.029716,3.753378,4.082087,4.085737,3.734994,3.507683,2.968162,4.621975,4.02094,3.126635,3.005487,2.773715,2.647595,2.404209,2.188004,3.232692,3.58,3.797169,0.88803,1.973482,2.345506,1.94576,2.645205,2.993055,0.634229,-0.561884,0.171263,0.822828,1.428458,-0.017877,1.248033,-3.405332,-1.30281,-0.47163,-1.31765,-1.706884,-5.742464,-2.986393,-0.841958,1.438173,1.640789,2.564985,-5.048764,-6.824228,-7.009678,-3.77325,-1.48064,0.665149,-1.914402,-4.107009,-6.768882,-8.109423,-4.141971,-1.918976,-4.075764,-5.621326,-4.637319,-3.701387,-2.174393,-3.829402,-4.29225,-3.367527,-2.811562,-2.496236,-0.621803,1.343697,3.465751,-3.424246,-5.001206,-6.609297,-4.188537,-1.770827,0.016429,2.626639,-3.226874,-5.247705,-10.565777,-4.614589,-0.639331,0.81027,-3.771483,-6.794311,-8.894148,-3.361007,-0.644576,-3.507961,-4.42524,-6.113679,-2.094242,0.918056,2.230171,3.304595,3.843468,-3.262577,-3.411055,0.07965,2.00599,3.942734,3.755089,0.430262,-0.175877,0.142415,1.981015,4.395073,3.83351,1.023231,1.416696,1.756296,1.293929,3.990226,4.003637,1.753726,2.344493,0.626912,0.478095,3.874806
1b_b3029,-0.938403,0.230711,0.514184,0.975831,0.286305,0.692926,1.167208,0.415698,0.081664,0.324402,-0.135295,0.515679,1.050423,0.723894,-0.004978,-0.178537,0.375099,-0.058117,0.188696,0.873112,0.61204,0.447862,0.350561,0.568385,0.66013,0.907339,0.442679,0.495124,0.954746,0.941474,1.091229,0.644151,0.348389,0.607072,0.998151,0.902609,1.035228,-0.205921,-0.064176,0.199885,0.448381,0.519081,-0.955305,-1.448234,-1.650296,-0.591751,-0.066878,-1.27646,-2.449341,-1.795446,-1.09711,-0.133662,0.438098,0.986855,1.729862,-3.407103,-3.182323,-1.668818,-1.257575,0.100252,0.941276,1.605706,-0.692403,-0.177472,0.261904,-0.680446,0.925775,0.43212,0.560222,0.255695,0.323261,1.260792,1.859779,0.805711,1.173471,1.107209,-0.511739,1.001021,1.491967,1.00959,2.497438,-0.677841,-0.946514,-1.066088,-0.213871,1.38807,0.838075,-1.295175,-1.732115,-1.126671,-0.77707,0.232189,0.278441,-2.349662,-1.638985,-1.810781,-0.828465,-0.009383,-2.507438,-1.315969,-0.677203,-0.109069,0.106808,0.778932,1.493157,0.932999,-1.228945,-0.33385,-0.38065,0.338281,1.284408,0.495046,0.931296,-2.079794,-0.57359,-0.23266,1.067078,0.861372,-0.765224,-2.207591,-1.090138,-0.810321,0.75831,1.147077,-1.076937,-1.082178,-0.769457,-0.247132,1.298651
1b_b3030,-2.200468,-0.797261,-0.686235,-0.628721,-0.271423,0.427242,1.325297,-2.172516,-2.051324,-2.259276,-0.830387,-0.395207,0.197739,-2.476892,-1.56979,-1.909256,-3.45396,-1.70708,-1.094193,-0.601601,-2.527276,-2.376353,-1.690725,-0.121427,-3.00138,-1.305609,-1.089291,-0.575455,0.083275,0.340736,0.763432,-3.204024,-0.707602,-0.463384,0.022475,0.292881,1.39548,-2.122156,-1.607339,0.503227,0.556854,-0.47397,-0.576064,-0.564115,-0.414537,-0.517626,-0.585908,-0.594499,-0.378315,-0.933213,-0.472867,-0.259232,0.07464,0.67521,2.269908,-0.319316,-0.331245,-0.3767,-0.409002,-0.108548,0.474099,2.31658,-0.483282,-0.370067,-0.251339,0.149127,0.495106,-0.206473,-0.117623,0.456223,0.843027,2.224528,1.628206,1.905111,2.102715,2.205914,2.263596,2.329016,2.015751,1.353507,2.093465,2.145555,2.033135,1.943386,1.836268,2.24293,1.137728,2.051985,1.98289,1.845235,1.764093,1.1423,1.149011,1.895305,1.784907,1.613177,1.136804,1.03122,1.833752,0.508189,0.52,0.453034,0.699451,0.607909,0.303751,0.964144,0.243767,0.367887,0.184158,0.066448,0.15781,0.558263,-0.4997,-0.878892,-0.296007,-0.795741,-0.328205,-0.411415,-1.649402,-0.982438,-1.221391,-0.556119,-0.977796,-0.855536,-1.967415,-2.020399,-2.506226,-2.046331,2.645712
1b_b3031,0.523498,1.425056,1.770279,1.62013,1.703701,1.41864,2.099372,2.990072,1.98001,1.944609,2.75004,2.185737,1.585887,2.408117,2.69873,2.767282,1.311051,1.837632,1.762913,0.16019,2.112755,0.946467,0.66143,0.021413,-0.848527,-1.322419,0.662266,0.008401,-0.914554,-0.128069,1.039822,-2.58638,-2.385517,1.315059,-1.071029,-0.302247,1.317153,-1.814863,0.065634,-0.50768,-2.418814,2.1672,-2.94399,-2.51402,0.469893,1.524639,2.173021,-4.164181,-3.74269,0.061711,-0.395367,0.154881,-0.55127,0.312711,1.390601,-0.344524,-0.746366,-1.824852,-1.01818,-0.177477,1.095082,1.313732,-0.948012,-1.746496,-1.789034,0.675819,0.788621,-1.292501,-0.83234,-0.385982,0.87388,1.36869,-0.193225,1.11732,0.581086,1.56929,2.022369,1.935574,0.715431,-0.101464,0.274112,1.194209,1.271805,5.020835,2.094371,0.339999,-0.753811,1.120336,1.007407,2.163175,-0.627865,-1.644762,-0.773696,4.524034,3.926603,-0.300081,-3.343268,-0.956891,-1.559544,-3.027397,-2.724499,-0.786195,-1.392264,-0.397518,0.649673,1.392135,-2.235798,-1.024613,-0.818919,0.186199,0.703402,0.408925,-5.872425,-0.608495,0.0005,0.353035,0.895908,-0.177358,-2.400886,-3.231041,-3.153025,-2.552133,-0.333622,-0.183104,-4.320353,-3.763211,-4.795623,-2.233807,1.07272
1b_b3032,3.652525,5.098603,4.558609,4.502176,2.999402,2.106035,1.954096,5.090244,5.303908,3.91308,2.919036,2.138954,2.851699,5.865491,4.884005,3.116182,5.784117,4.152516,3.321482,1.875796,5.632964,4.812973,3.995154,1.9609,5.400311,3.829724,3.034203,2.678677,1.784754,1.416152,1.714596,2.154908,1.78271,0.899799,1.441355,1.168358,0.647553,0.422165,-0.333984,0.78296,-0.418108,0.241524,1.5493,0.741129,-1.48111,-0.277131,0.073277,-0.271175,-3.813138,-3.5377,-0.697752,-0.77221,0.152038,0.498977,1.193655,-1.038912,-3.474814,-3.985376,-2.766423,-1.001543,0.237018,-1.389711,-3.889142,-3.177271,-4.040255,-3.543133,-1.459264,-1.840162,-3.782635,-4.874831,-3.360353,-5.026235,-3.571596,-4.48864,-5.38736,-6.477413,-4.574605,-1.356652,0.147581,1.262834,-3.921139,-5.895509,-8.867064,-7.800469,-3.391293,-0.258321,0.771017,-4.695545,-7.366917,-11.361793,-6.424421,-1.215968,0.177623,-4.698612,-6.892137,-8.666584,-2.301764,-0.050749,-3.374664,-4.509175,-4.266853,1.229517,1.311531,1.811435,2.674852,2.153627,-1.954252,-1.113249,2.111856,3.254594,2.452241,3.518346,-0.91689,0.929922,2.804839,2.617345,3.91914,3.505653,1.583962,1.944524,2.289958,3.485288,3.80949,3.911802,1.801839,2.327687,-0.578088,0.818152,1.668345
1b_b3037,-0.346912,4.236303,4.260839,2.559052,3.142176,3.421247,3.034526,9.558886,5.899198,4.285865,2.760913,2.092643,2.488917,6.10114,4.460948,3.820654,6.086032,3.07106,2.007927,1.82024,9.932242,4.724578,2.073447,1.48619,2.233709,0.687916,0.736269,-0.355619,1.676673,2.686386,4.569625,-3.353815,-2.381199,-2.781171,1.190975,2.137085,3.360849,-5.287027,-5.076224,-1.753932,2.993078,3.332748,-5.940254,-5.86516,-5.33482,-1.355157,-1.186005,-5.506616,-6.440729,-5.321671,0.286579,1.25485,4.242203,4.976772,5.1992,-8.902124,-9.326992,-2.558278,-0.086809,2.947097,4.894648,4.882304,-10.827076,-8.847785,0.545857,1.859246,5.195608,-9.231806,-7.07166,-0.902792,5.580019,5.868024,-9.208891,-6.291846,-0.055181,3.988948,3.138238,4.80198,4.924766,4.312295,-8.851159,-6.250953,-0.112368,1.050087,3.090862,6.169359,5.070014,-8.814615,-8.102522,0.919075,3.439764,2.021013,4.71912,-10.968107,-5.517393,0.493747,1.785503,3.523471,-11.866878,-12.83762,-3.555469,3.104002,4.897211,3.73983,4.445093,3.351936,-11.622397,-3.14332,3.516608,3.292735,3.816149,3.873,-7.509283,-3.822496,0.616236,1.340224,2.708453,3.456639,-8.438463,-4.129622,-2.251036,0.724797,1.511569,3.116043,-2.359789,-6.499597,-5.813781,-6.914517,3.357419
1b_b3039,-1.045113,1.722582,2.274228,2.856881,3.802715,3.857878,4.825905,-3.651365,0.13852,2.274867,2.739319,3.629191,4.490005,3.186612,1.542765,2.606001,0.606445,3.371494,4.083627,3.268251,1.596786,2.333581,3.439878,3.998794,1.176426,2.120275,2.883521,3.929458,3.550325,4.231198,5.520257,0.614816,0.921294,2.227493,3.183794,3.374771,5.653339,-0.132401,0.21568,1.549661,2.67234,3.955717,-1.191512,-0.834328,-1.501647,0.39651,1.491257,-3.787585,-1.625942,-2.7792,-1.323094,1.383793,3.736939,2.548673,3.327257,-2.017157,-4.237431,-3.900986,-2.25842,2.216796,0.17809,-2.45084,-4.124499,-5.55981,-4.971164,-4.416933,-2.629607,-4.211286,-4.781159,-5.799539,-5.461994,-4.400904,-4.01243,-5.334659,-5.406991,-4.95434,-3.426202,-1.5497,1.235062,4.839028,-7.063297,-5.958629,-6.017942,-3.374932,0.123714,2.731577,4.004748,-6.106194,-7.25088,-5.806783,-2.564802,1.015858,2.114954,-5.287433,-7.238193,-3.413568,-0.933295,0.252725,-5.263601,-5.682432,-2.771968,-0.502608,1.409902,3.847762,4.482012,4.624476,-3.486032,-2.236087,0.989674,3.837667,3.960969,4.672319,-1.955486,-0.867233,0.026168,3.640185,2.856593,4.168733,-1.671669,-0.780462,-0.499635,1.395411,3.281337,3.512769,-0.150977,-1.439756,-1.239479,0.031164,4.580788