File,EEG 1-bc_avg_k,EEG 2-bc_avg_k,EEG 3-bc_avg_k,EEG 4-bc_avg_k,EEG 5-bc_avg_k,EEG 6-bc_avg_k,EEG 7-bc_avg_k,EEG 8-bc_avg_k,EEG 9-bc_avg_k,EEG 10-bc_avg_k,EEG 11-bc_avg_k,EEG 12-bc_avg_k,EEG 13-bc_avg_k,EEG 14-bc_avg_k,EEG 15-bc_avg_k,EEG 16-bc_avg_k,EEG 17-bc_avg_k,EEG 18-bc_avg_k,EEG 19-bc_avg_k,EEG 20-bc_avg_k,EEG 21-bc_avg_k,EEG 22-bc_avg_k,EEG 23-bc_avg_k,EEG 24-bc_avg_k,EEG 25-bc_avg_k,EEG 26-bc_avg_k,EEG 27-bc_avg_k,EEG 28-bc_avg_k,EEG 29-bc_avg_k,EEG 30-bc_avg_k,EEG 31-bc_avg_k,EEG 32-bc_avg_k,EEG 33-bc_avg_k,EEG 34-bc_avg_k,EEG 35-bc_avg_k,EEG 36-bc_avg_k,EEG 37-bc_avg_k,EEG 38-bc_avg_k,EEG 39-bc_avg_k,EEG 40-bc_avg_k,EEG 41-bc_avg_k,EEG 42-bc_avg_k,EEG 43-bc_avg_k,EEG 44-bc_avg_k,EEG 45-bc_avg_k,EEG 46-bc_avg_k,EEG 47-bc_avg_k,EEG 48-bc_avg_k,EEG 49-bc_avg_k,EEG 50-bc_avg_k,EEG 51-bc_avg_k,EEG 52-bc_avg_k,EEG 53-bc_avg_k,EEG 54-bc_avg_k,EEG 55-bc_avg_k,EEG 56-bc_avg_k,EEG 57-bc_avg_k,EEG 58-bc_avg_k,EEG 59-bc_avg_k,EEG 60-bc_avg_k,EEG 61-bc_avg_k,EEG 62-bc_avg_k,EEG 63-bc_avg_k,EEG 64-bc_avg_k,EEG 65-bc_avg_k,EEG 66-bc_avg_k,EEG 67-bc_avg_k,EEG 68-bc_avg_k,EEG 69-bc_avg_k,EEG 70-bc_avg_k,EEG 71-bc_avg_k,EEG 72-bc_avg_k,EEG 73-bc_avg_k,EEG 74-bc_avg_k,EEG 75-bc_avg_k,EEG 76-bc_avg_k,EEG 77-bc_avg_k,EEG 78-bc_avg_k,EEG 79-bc_avg_k,EEG 80-bc_avg_k,EEG 81-bc_avg_k,EEG 82-bc_avg_k,EEG 83-bc_avg_k,EEG 84-bc_avg_k,EEG 85-bc_avg_k,EEG 86-bc_avg_k,EEG 87-bc_avg_k,EEG 88-bc_avg_k,EEG 89-bc_avg_k,EEG 90-bc_avg_k,EEG 91-bc_avg_k,EEG 92-bc_avg_k,EEG 93-bc_avg_k,EEG 94-bc_avg_k,EEG 95-bc_avg_k,EEG 96-bc_avg_k,EEG 97-bc_avg_k,EEG 98-bc_avg_k,EEG 99-bc_avg_k,EEG 100-bc_avg_k,EEG 101-bc_avg_k,EEG 102-bc_avg_k,EEG 103-bc_avg_k,EEG 104-bc_avg_k,EEG 105-bc_avg_k,EEG 106-bc_avg_k,EEG 107-bc_avg_k,EEG 108-bc_avg_k,EEG 109-bc_avg_k,EEG 110-bc_avg_k,EEG 111-bc_avg_k,EEG 112-bc_avg_k,EEG 113-bc_avg_k,EEG 114-bc_avg_k,EEG 115-bc_avg_k,EEG 116-bc_avg_k,EEG 117-bc_avg_k,EEG 118-bc_avg_k,EEG 119-bc_avg_k,EEG 120-bc_avg_k,EEG 121-bc_avg_k,EEG 122-bc_avg_k,EEG 123-bc_avg_k,EEG 124-bc_avg_k,EEG 125-bc_avg_k,EEG 126-bc_avg_k,EEG 127-bc_avg_k,EEG 128-bc_avg_k,Cz-bc_avg_k
1b_a3001,-1.221515,-1.224597,-2.079535,-2.953907,-3.423726,-3.396542,-2.611025,-0.744352,-0.212531,-2.949976,-2.901014,-2.922494,-2.237751,-0.579833,-1.369054,-2.671234,-1.505938,-2.089994,-3.749685,-1.808602,-0.864801,-1.006536,-2.121512,-1.565745,-1.378998,-1.655149,-1.59428,-1.316869,-1.719456,-1.973847,-0.062289,-1.381394,-2.63115,-1.09064,-0.93672,-1.064923,0.03075,-1.148798,-1.312192,-0.823619,-0.426432,0.927564,-0.343321,0.36249,0.597483,0.593273,0.641387,-0.692108,-2.345546,1.343322,1.463431,1.493257,1.66872,1.775344,0.344153,0.998002,1.063145,1.58005,1.951619,1.999998,2.127558,2.641876,1.501845,1.585725,2.116064,3.193113,3.069995,1.790955,2.054388,2.732649,1.576915,2.311917,1.493878,1.801387,1.118966,1.095487,2.006427,2.858367,1.241497,-0.664921,0.961639,1.647767,1.86296,2.350257,3.936811,1.866979,-0.622872,1.357887,2.307341,3.601833,2.42135,1.441507,1.032906,1.507815,2.870196,2.436588,1.362909,0.559629,2.336938,1.304947,1.026203,0.383149,0.444671,-0.132164,-1.01672,-2.538723,0.981625,0.597726,-0.322447,-0.294481,-1.34648,-3.220793,1.016084,-0.318033,0.166396,-0.39607,-1.625896,-2.710592,-0.602687,-0.375471,-0.615472,-0.995561,-1.396981,-3.183868,-0.79329,-0.680474,-0.508826,-0.993926,-1.470736
1b_a3009,1.628642,3.448167,4.021746,3.407075,2.774214,2.580103,2.301668,4.199564,4.934461,5.180416,4.222128,3.929322,4.008023,6.513557,7.759945,3.815845,3.279563,8.025353,4.993525,2.957162,8.317357,10.150655,6.317906,3.103082,5.196643,4.528124,1.248921,0.247786,-0.193204,0.127988,1.572299,-0.797781,0.445058,0.031691,-0.636699,-1.357058,-2.389287,-0.943679,-0.69774,-0.711873,-0.515713,-0.893065,-1.387739,-1.860864,-1.568463,-1.03813,-0.744946,-1.6442,-0.854036,-2.602439,-1.920637,-2.065605,1.356244,2.970239,0.596236,-2.792126,-3.180832,-3.931674,-3.369325,-1.176608,1.637955,0.569802,-7.007632,-5.753765,-4.829832,-3.934289,-0.783969,-5.030977,-5.276365,-4.447465,-2.226858,-0.778369,-4.017668,-4.233327,-3.381034,-2.403019,-2.038561,-1.002902,0.118683,1.269939,-2.957624,-4.576354,-5.09898,-2.909021,-1.371639,-0.862834,1.535401,-3.55194,-6.036335,-5.580328,-2.905427,-1.862441,0.333156,-6.000881,-5.698958,-4.306848,-0.556833,0.075415,-2.827038,-2.288067,-1.568112,0.22675,0.710225,0.99344,1.700856,3.301394,1.315174,0.470076,1.156653,1.413963,2.054664,3.101397,-2.992024,-1.183816,2.050352,2.185609,2.356673,3.217041,-2.997782,-1.40004,-1.86962,2.597592,3.30739,4.03406,-1.886167,-3.909195,0.13972,-0.495678,2.049645
1b_a3010,1.191771,0.835522,0.173811,-0.179974,-0.467317,-0.314151,-0.080696,0.991145,0.125055,-0.808156,-0.805459,-0.238946,-0.166588,0.325459,-0.521036,-0.849046,-0.160068,-0.658327,-0.366989,-0.755205,0.373519,-0.448657,-0.611053,-0.824949,0.271299,-0.449834,-0.987842,-0.617516,-1.058033,-0.586631,-0.246185,-0.547449,-0.342517,-0.085895,-0.346384,-0.425217,-0.362714,0.564278,-0.248363,-1.01407,-1.150636,-1.305695,0.218771,1.654819,-0.468314,-1.113088,-1.103948,-0.332053,0.089579,-0.3693,-0.905916,-0.588712,-1.367141,-0.124071,-0.34952,-0.5813,0.07554,-2.17603,-3.848887,-1.734383,-1.010326,1.489107,-1.413637,-1.263931,-3.690808,-4.552695,-1.032892,-1.045433,-1.137392,-1.549163,-2.644359,-0.109969,-0.449475,0.113949,-0.178895,0.320643,0.229155,0.607161,1.128909,0.315264,-1.023639,-0.724566,0.170578,0.485493,0.644833,0.727687,0.840345,0.481626,0.47686,0.231001,0.746079,0.839795,1.408225,1.311597,0.644104,0.882624,0.948732,1.329946,0.216796,1.172472,0.974877,1.041244,1.106045,1.565297,1.193858,0.00477,1.849647,1.905382,1.843915,1.46006,0.677834,0.226383,1.899221,1.514894,2.035354,1.148842,0.507852,0.420266,0.602091,1.559003,1.95043,1.719924,0.530036,0.365836,1.412681,0.926625,-0.400529,0.477145,-0.251088
1b_a3011,-0.181041,1.788202,2.682232,2.380909,2.409843,1.595503,2.004862,2.71753,3.233901,2.451159,2.045972,1.789971,2.275348,2.977659,3.019007,2.177257,2.838461,2.890867,3.136507,2.01204,2.792565,4.920427,3.382863,2.424951,3.376122,3.789949,2.453528,2.685793,1.837707,2.167829,2.504812,3.173551,1.900429,2.044923,2.27406,2.295946,0.815386,1.133087,1.647253,1.962269,1.073667,1.18829,0.476921,0.693212,0.785038,-0.291781,0.793657,2.228642,0.819597,-0.743968,0.02692,0.151625,0.381819,1.550434,2.777371,-0.991662,-2.302015,-3.581967,-2.093823,-1.179298,1.046977,-1.778082,-2.26013,-3.798579,-7.83379,-6.505681,-3.739227,-5.046851,-5.110654,-7.730677,-4.892128,-2.422025,-0.732218,-2.538283,-4.037897,-2.612627,0.108814,-2.019437,1.787866,2.331985,-3.394236,-3.394631,-3.567817,-4.052447,-1.172677,-1.13589,1.868507,-3.096979,-3.189207,-5.762049,-4.088223,-1.793805,0.712241,-3.671894,-3.863186,-5.516321,-2.21102,0.129416,-3.916489,-3.566423,-2.848813,0.181888,0.820704,1.614399,2.287831,2.753617,-3.018046,-0.438954,0.439285,1.117599,2.204207,1.415516,-4.132837,-1.481937,0.619249,1.324606,1.439266,1.461406,0.583607,-1.462768,-0.605867,0.16096,1.891549,2.20584,0.407734,1.126311,0.459129,1.712599,2.635371
1b_a3012,-0.426567,0.591254,0.838328,0.716332,1.400649,1.22145,1.641421,0.216545,0.657538,1.159883,0.077554,0.593831,1.216954,0.258448,0.115279,-0.002534,0.440559,0.013355,0.694621,1.008459,-0.118381,-0.007886,0.248168,1.224449,0.117048,0.520864,0.684754,0.831968,1.507125,1.603628,1.772672,-0.111878,0.681021,1.211698,0.36112,0.969714,1.84043,-0.222905,0.452634,1.745987,0.329906,1.305021,-0.121174,-1.158461,-0.009185,2.715199,0.560333,-1.535242,-0.654737,-0.135187,0.831073,0.817762,1.754363,1.749542,1.831932,-1.851875,-1.75378,-0.630181,-2.334897,1.007295,1.748156,1.788751,-2.364282,-2.45439,-2.066815,-0.603455,0.324697,-3.120566,-2.667279,-3.238261,0.074653,0.554775,-2.537156,-3.399033,-3.684892,-1.559471,1.215644,2.219026,1.8329,1.85464,-3.153765,-4.136828,-3.673985,-1.955423,2.043406,2.49449,2.035082,-3.696732,-4.236162,-3.237357,-0.075417,1.668681,1.857234,-3.817753,-3.897048,-2.894181,-0.177324,0.582321,-4.142286,-3.691368,-2.640461,1.060549,0.795392,1.952862,1.614808,1.657421,-2.810698,-0.596977,1.790233,1.586672,1.955145,1.553377,2.438158,-0.693748,0.380381,2.071919,0.400145,1.487711,-2.381706,-0.427618,-0.825441,1.001559,1.956321,1.432719,2.438158,-1.224748,-0.777146,0.090334,2.438158
1b_a3017,-2.807842,-2.132951,1.04699,5.577059,-0.843343,5.308298,-2.989399,-6.217912,-4.650793,-2.659403,-0.393009,3.540987,-2.337556,-7.094543,-6.980442,-2.529221,-8.991083,-2.358634,14.422914,-2.904757,-8.645101,-2.580931,-4.623722,3.45632,-9.289574,-5.362765,9.878123,-5.293778,-5.055611,-5.02031,5.300684,-3.571649,-7.022849,-2.199737,-0.210383,1.755106,-10.268565,15.087814,-4.866458,-0.793091,-2.114157,0.173952,3.688293,1.501508,1.41128,0.209679,0.374252,4.887956,2.055584,-2.235474,-0.529698,-1.025616,-3.477084,-0.390329,8.407461,-4.455543,-3.593063,-3.911875,-0.740217,-9.758325,9.824057,8.799086,-3.714357,-3.305081,-7.319292,-4.557299,8.234985,4.803309,1.144151,0.061665,1.210098,11.315058,1.672521,4.715816,5.475137,-2.304517,7.834163,11.324292,3.454751,3.442339,5.677947,5.096345,7.412115,6.10826,4.387474,3.743939,3.45029,5.750987,6.026202,3.944092,3.885128,2.38879,1.339943,5.700319,-10.252932,-0.85424,1.192344,5.292309,-8.279148,-14.712914,14.389745,-2.57586,4.725764,0.908597,-0.858017,3.841227,-12.050854,5.824224,4.173038,3.164636,4.155674,-0.313291,-11.439112,-7.689236,-1.637072,4.334188,3.2729,-0.613049,-8.394973,-8.538877,-5.031401,-0.144671,0.130872,-4.294657,-5.498132,-3.684852,3.91627,-6.128167,1.489471
1b_a3018,3.064394,3.739229,4.451452,3.002609,0.408461,1.479087,2.10075,7.298266,4.623321,3.381924,2.097449,1.732252,2.082122,6.41296,3.831705,4.811656,3.913888,2.383418,1.838735,1.499704,4.326313,2.701068,1.761492,1.564604,3.180714,1.9362,1.457816,1.580633,1.550662,1.543088,1.518598,2.337507,1.425678,1.923875,2.865431,2.664923,1.121818,1.909611,1.166488,0.951407,1.239254,0.761037,5.786039,-1.574255,0.265933,0.291455,0.161226,1.624771,1.535065,-1.951757,-3.169352,-2.232266,-0.207464,-0.23667,0.908583,0.18214,-1.068869,-5.088356,-4.958364,-3.29873,-1.289929,-5.293086,-3.817401,-3.085311,-5.826959,-4.503385,-4.859204,-6.044676,-4.934071,-5.525448,-5.510301,-4.817747,-4.176911,-4.185938,-4.298848,-5.109128,-5.267928,-0.99272,0.585855,1.330195,-4.826947,-5.188349,-5.950467,-5.247246,-3.238023,0.143951,1.372881,-4.95121,-4.671134,-5.684625,-3.480845,-1.555689,0.917015,-4.703736,-3.770107,-3.663687,-2.582347,0.17293,-2.681031,0.332128,-1.325242,0.261887,1.320382,2.251009,2.39303,2.633025,0.368561,0.198556,1.398684,2.26954,2.288016,2.476402,0.40999,1.364002,1.282294,1.735437,2.618567,2.760756,-0.260218,1.025119,1.672673,1.842469,2.559359,2.805202,1.339933,0.925603,1.664845,1.90179,2.087078
1b_a3019,-4.492677,-5.820443,-3.993088,-3.721129,-2.440308,-1.705209,2.250379,-6.241694,-5.567279,-4.442405,-1.144183,-2.012864,1.275887,-6.078374,-3.824654,-2.654245,-5.442824,-3.044704,-1.806459,-1.392075,-4.044533,-2.145624,-0.713531,-1.008291,-1.459713,1.185834,-1.75351,-0.942998,1.125154,1.875343,1.911415,1.649626,-0.81539,-1.368383,2.240898,2.241388,-1.726105,0.28775,-1.023739,1.37021,0.043161,-1.633788,-1.173247,-1.325819,-0.523184,-0.990256,-0.622295,-1.583632,-1.320411,0.166711,0.233867,0.268607,2.027672,2.418588,2.890236,0.189483,0.566409,4.294182,5.184653,6.292082,5.064015,5.190367,1.645691,1.254382,4.729371,5.884069,2.554722,10.354372,8.060419,3.640036,3.385233,5.437317,3.376196,2.494677,4.043161,4.642489,4.156004,0.202376,0.160654,0.433633,-1.351535,2.708165,4.064733,2.051235,0.326554,-0.137768,-0.057326,2.993938,1.00035,0.240911,-0.050768,-1.703125,-0.208447,3.852987,-0.03285,0.144704,-0.310017,0.06006,0.594137,-0.401065,-0.446805,-1.29244,-1.362486,-1.118707,-1.110753,0.14918,-0.661903,-1.17956,-2.391061,-1.506674,-2.149465,-1.917247,-0.17835,-2.128781,-0.38108,-1.198841,-1.269862,-1.576286,0.187292,-0.505131,-3.595233,-4.486576,-1.50974,-2.052748,-2.662453,-1.858233,-1.965148,-0.918401,0.602958
1b_a3020,1.690629,3.173113,4.402287,4.599446,4.45715,4.002606,-2.49273,4.719518,6.296927,5.657087,4.36317,4.971652,6.180104,7.522114,5.840979,5.07831,5.553846,6.332708,4.969464,5.018088,6.285457,6.693398,5.585742,5.082326,9.983543,3.939749,5.218398,4.359359,3.835869,0.055096,2.051692,1.721353,1.370742,2.844197,1.187695,0.888654,2.317357,-0.096428,0.74831,1.535981,1.079749,1.89843,-1.117727,0.263251,0.565655,1.249257,1.672122,-3.431187,-2.621022,0.392849,-0.113214,-0.84288,-1.029729,0.537295,-2.973685,-3.165715,-2.754648,-3.125861,-3.181005,-2.28768,-3.70725,-4.879051,-3.854833,-3.81721,-4.002721,-4.404362,-3.684464,-5.579217,-5.209343,-5.171139,-4.842032,-3.432675,-5.149072,-5.032906,-5.265318,-4.590415,-4.014388,-3.980224,-2.258653,1.388439,-3.99753,-4.134173,-4.153101,-4.395975,-4.028412,-1.894917,1.10008,-4.168137,-5.574489,-4.419602,-3.267505,-2.234994,0.326756,-5.044019,-5.494248,-5.18392,-2.43194,-0.885691,-4.94818,-5.341312,-3.910403,-0.815518,-0.239873,1.079086,1.802714,2.496959,-5.624641,-3.51542,0.604336,0.91168,2.030487,2.805903,-1.771271,-2.2931,0.408689,1.562876,1.791065,3.090992,-0.046101,-0.363062,0.671928,1.233652,3.129824,3.420389,0.723134,1.236428,0.077976,0.319899,1.880306
1b_a3025,0.908538,4.466236,7.724478,7.666247,6.62353,6.667737,6.667827,8.863776,5.93454,5.96552,5.139771,4.888052,4.549599,5.828415,5.169753,5.593205,6.691197,5.770232,4.836658,3.577181,7.15525,4.745452,3.871952,3.726536,5.839925,2.670867,2.697135,1.279379,2.954733,4.150981,5.146901,1.392632,0.436008,0.411617,0.604221,2.119717,3.131884,-1.04436,-1.52037,-0.719666,-0.030784,0.288045,-3.651937,-3.126181,-4.237447,-2.495325,-0.181349,-3.375609,-4.357673,-5.063443,-3.337742,0.375581,1.124884,2.108421,0.986775,-5.678968,-6.661777,-5.821718,-4.137662,-2.503447,0.99905,-0.41686,-5.112699,-8.030494,-6.888422,-5.905956,-3.999314,-5.772638,-4.819948,-3.221311,-2.785626,-1.28032,-4.296643,-3.240853,0.036797,0.118764,0.467219,0.943016,1.208865,2.022728,-4.103007,-4.728711,-3.938129,-3.596664,-2.178488,-0.962131,1.169287,-3.723061,-5.060301,-5.906594,-3.474969,-1.272072,-0.818972,-8.059483,-7.88681,-5.704001,-2.574836,-1.27637,-6.313108,-5.618183,-4.565012,-1.597236,0.047495,1.563988,2.414752,6.234635,-6.570202,-2.487533,0.560654,1.376631,2.650091,7.087498,-4.514726,-2.608117,-1.466023,0.53895,2.596463,7.197206,-0.363883,-1.566249,-1.439221,1.248871,2.767466,7.327066,-1.461546,-2.142137,-1.514924,-0.745559,2.625932
1b_a3026,2.159502,-0.789611,-0.285897,1.485469,1.755828,0.729726,2.438764,-8.674794,-1.857489,-1.061176,1.326332,0.116238,-0.18731,2.13693,-2.188841,0.198382,-5.117633,-0.576712,0.068527,-0.124355,-5.609643,-1.138837,1.326773,-0.196945,-2.061978,-0.756056,-0.780877,-0.378397,0.020081,0.268641,0.122098,-1.324778,-1.017953,-0.870474,-0.368846,0.203667,0.704902,-1.639425,-2.118494,-0.263131,0.584108,0.948318,-2.668156,-1.834317,-1.861637,0.200426,0.412933,-3.23841,-1.821244,-0.276764,0.39437,1.780927,2.136536,0.779483,0.992195,0.382959,-1.280457,-0.954088,0.872538,1.347888,1.415084,5.708371,-0.940869,-2.342897,-0.109552,0.968238,3.12113,-0.927788,-0.7014,1.099601,1.669855,5.563385,-0.969551,-0.114126,0.952572,3.305381,4.511932,3.632724,2.839684,1.344432,-0.560481,-0.041501,3.479105,3.547377,4.225367,1.626608,1.55368,0.451303,0.714009,1.890189,1.536354,1.523003,0.841298,1.465553,-0.68574,-0.092534,-0.518801,-0.41335,-1.930888,-2.994747,-1.98654,-0.945063,0.0407,0.809318,0.373805,2.245371,-4.065797,-1.734659,-1.51342,0.598139,-0.763292,0.857231,-4.653043,-1.54853,-0.092085,-0.842913,-4.154388,-0.640878,-0.341522,0.184286,0.915978,-0.991252,0.639682,0.478489,0.210928,0.892691,-1.798853,-0.351169,-0.035039
1b_a3027,1.523807,3.856889,3.600047,3.34957,2.943151,1.336139,2.317576,5.738626,5.182757,4.117047,2.850897,0.957085,1.352692,4.12845,4.274966,3.89225,6.516176,3.407113,-0.308833,0.555075,4.267454,3.639194,2.781813,0.152321,2.662297,1.156864,0.080807,0.699281,0.616682,0.636469,-2.837717,0.534209,0.575967,0.268098,0.976812,0.702803,-2.862412,-1.341548,-0.252096,0.336573,-1.067487,-2.803001,-1.482231,-0.983163,-0.416194,-2.023591,-2.702775,-1.878215,-1.008798,-2.516983,-0.784881,-1.052356,0.32355,3.608231,1.704861,-0.62499,-2.568279,-4.205545,-0.573006,-1.43737,1.377356,3.578367,-2.853071,-2.957581,-1.532357,-1.404709,1.055978,-2.396234,-3.531851,-3.504511,-0.005367,-0.280461,-1.729144,-2.052745,-1.325146,-1.096458,-0.527635,0.307023,-0.196551,3.614565,-3.18312,-3.465982,-4.098277,-2.524045,-1.272728,-3.240573,0.56467,-3.034158,-3.793616,-2.397611,-1.88218,-2.400167,0.352355,-2.557955,-5.902751,-5.101869,-1.926396,-0.412327,-4.636343,-0.924387,-0.807173,-0.430949,0.411881,1.626062,2.361879,2.252685,-0.907231,-0.111622,0.671289,1.138,1.143711,1.587746,-2.208056,-2.645444,0.405583,0.964508,2.36094,3.029271,-1.111485,-0.474193,0.511847,1.410814,3.100888,2.985982,0.269114,-1.875369,-1.333131,-1.706369,2.78369
1b_a3028,2.13561,4.411147,5.329186,4.32821,5.182187,5.134205,4.612982,5.594737,5.489048,5.482653,5.143735,5.047617,4.569617,5.679525,5.349986,5.215966,4.636755,5.262375,4.440886,4.384966,4.910303,5.474668,3.905674,4.045334,5.277939,3.321189,3.403196,2.813556,2.737943,2.062692,3.308129,2.196207,2.34635,1.589314,0.311829,1.313803,0.75907,0.679428,-0.823989,-1.323102,-2.167347,-2.142404,0.871807,-0.210005,-2.797109,-5.315103,-5.07479,0.420311,0.107188,-6.617502,-8.940337,-5.793158,-1.773877,1.535363,3.943244,-0.909627,-5.246424,-10.663261,-14.136809,-5.58734,-1.03081,-0.039298,-1.45622,-5.426763,-12.352925,-11.939374,-3.398403,-2.298604,-4.055642,-8.85866,-5.313826,-2.723892,-2.553282,-4.525774,-5.416674,-4.887545,-2.184618,1.286645,2.00711,3.787784,-3.057857,-5.615706,-7.690147,-4.732662,-0.677649,0.825148,2.1835,-4.396326,-5.846249,-8.631596,-4.080205,-0.419244,1.620741,-2.653862,-3.997311,-5.549209,-0.851426,-0.04452,-2.591513,-3.337409,-2.291828,-0.103126,0.982515,2.567006,3.049239,5.231814,-1.653881,-0.121519,1.113776,2.04127,3.151163,4.857669,-1.005155,-0.084326,1.438993,2.794755,3.557821,4.300926,-0.333487,0.04692,0.877823,3.210373,3.077348,3.707932,2.02969,2.820413,4.346923,1.468996,4.60048
1b_a3033,-0.394997,4.756227,0.860554,0.338328,-1.140021,-0.628049,-2.355776,11.619529,2.277831,0.636361,-0.417698,-1.895488,-4.637104,5.014273,2.412644,0.304413,7.288586,1.237465,-0.563661,-4.301718,7.296383,3.387991,-0.661852,-5.09978,3.32872,-2.652567,-5.548136,-2.734121,-3.545743,-3.119485,-2.248299,-3.228772,-3.45002,-2.467502,-2.372102,-2.585247,-1.706277,-4.314353,-1.582325,-2.175468,-2.027157,-1.40676,-1.793709,-3.334759,-0.778329,-0.82371,-1.428944,-2.942135,-0.681599,0.966992,0.244997,1.638601,-0.017341,-1.604413,-2.174224,0.636899,1.162869,2.893732,3.759215,3.826875,2.231987,6.770364,0.816729,3.468019,3.291691,3.770139,3.212245,6.873906,5.999202,4.988561,7.304641,6.303341,5.779827,3.976539,6.386889,5.776248,2.255075,0.44024,-2.300897,-3.299113,7.150116,3.704113,4.437421,0.385473,4.248211,-1.111973,-1.148229,7.336229,1.632748,-2.576391,0.041887,-1.182747,-1.271672,6.701645,0.293167,-1.318917,-2.100788,-2.678039,2.736966,-1.831048,-2.008057,-1.737197,-0.898923,-1.972827,-3.198841,-0.763604,-2.02754,-2.544461,-1.538067,-3.502085,-3.754366,-3.918418,-3.161764,-2.383107,-2.349719,-3.054993,-3.138482,-4.297558,-3.328779,-4.122633,-2.454167,-1.237262,-0.566989,-1.652703,-2.550122,-6.380497,-3.933483,-4.249074,-1.817927
1b_a3034,-3.378114,-1.781113,-1.625929,0.107239,0.937393,1.266146,1.236965,-3.199342,1.057826,-1.16392,1.660222,1.030741,0.155915,-2.924561,0.183528,-0.626176,-1.257885,0.635194,2.097201,-0.644391,-0.443231,0.867386,2.627494,0.799923,-0.719137,-1.039831,-0.046528,-3.239803,0.348437,0.376185,0.452536,-1.583895,-4.608008,-0.028895,-0.100958,0.488898,0.33548,-1.36635,0.863968,0.466844,0.76574,0.138042,-0.962551,-0.390471,0.496074,0.167143,-0.123858,1.690456,2.336611,0.901149,0.620291,-0.14738,0.899615,-0.07715,-0.383127,-0.194268,1.23693,-0.455394,-0.63183,1.101012,-0.36211,-0.878409,-1.590152,-1.417306,-1.188652,-0.788182,-1.445642,-0.962517,-0.400725,-1.956351,-1.1624,-0.91931,-1.241507,-1.813459,1.152266,-0.461305,-0.742326,-0.309189,0.56368,1.781296,1.354498,3.432236,-0.737678,0.729824,-0.201527,0.305749,3.269494,4.118792,-0.837996,-1.867195,-3.476447,0.454822,2.415874,1.11257,-0.532721,-6.432488,0.31925,1.985667,-0.897473,-0.927351,-0.412569,1.015903,1.613258,2.503583,2.061129,1.900292,-1.063427,0.926979,2.252145,0.730294,1.690251,2.462806,0.835818,2.084626,0.127943,5.492076,-0.588927,1.007168,1.953512,0.53399,-4.501181,-0.515205,-2.794636,-0.007974,-3.628453,-1.134125,1.438051,-1.647459,1.014038
1b_b3005,1.037157,4.050924,4.376502,1.696099,3.055262,3.64012,0.805502,2.886331,8.818508,7.538924,0.011612,1.643185,0.011721,5.677761,6.413191,5.724874,3.126784,2.77523,1.098105,-0.4963,4.094399,3.827843,3.60248,0.084495,2.658553,3.478883,1.666078,-0.106963,2.219884,2.556554,2.208728,1.845258,3.110317,1.873198,2.312433,2.109302,3.496804,1.756186,2.347193,2.348338,2.000017,4.183666,0.110853,2.066329,1.85845,2.279012,3.895472,-0.099863,0.181902,0.362412,0.569473,-0.460867,-2.055827,-4.309453,-2.774567,1.094291,1.07629,-2.168607,-0.77055,0.752032,0.62634,-4.385475,-1.934697,-1.483643,-1.7122,-0.698437,-0.225463,-1.910841,-2.088723,-2.372273,-2.670426,-3.828529,-3.907098,-4.284966,-3.706782,-1.071244,-2.225092,-3.744479,-1.076741,2.550071,-1.1429,-0.396114,-3.394148,0.564954,-2.39903,-1.363873,-0.323607,-3.537313,-3.883808,-2.655702,-3.54789,-3.646326,-0.394222,-3.924427,-3.567401,-5.597099,-3.708609,-2.932248,-4.026759,-7.443645,-7.185925,-3.287853,-0.598771,0.103442,2.393345,1.492169,-6.876183,-4.744561,-0.548731,-1.073541,2.474661,1.684265,-4.386064,-3.995065,0.118143,0.797536,2.888078,2.826074,-2.946654,-1.296109,-8.746255,1.286677,3.419008,2.925122,0.714803,-0.315517,1.111346,0.889118,-0.82362
1b_b3006,-0.593759,0.384031,0.134089,0.225006,-0.620992,2.279644,1.193281,0.677904,0.420053,0.150157,-0.366331,0.08267,0.146746,-0.76712,-1.476143,0.220391,-0.597596,-0.900703,-0.686564,0.117451,-1.221115,-0.622281,-0.37544,0.070083,-1.134146,-1.370851,-0.099409,0.127891,0.675606,1.4216,3.227506,-2.458321,-0.482198,0.064853,1.256115,1.797701,3.869197,-2.67098,-1.384181,-0.363478,0.70896,-0.167385,-0.618523,-0.375741,-2.491862,-1.483238,-0.611636,-2.475562,-3.670603,-3.079395,-2.425556,-1.010973,3.46008,5.768552,4.440477,-3.500575,-4.769639,-5.910251,-2.948703,1.143324,4.159707,3.84148,-6.738518,-6.567783,-5.338583,-4.463406,3.776726,-5.203554,-5.377572,-3.33296,3.376853,3.542574,-4.354988,-3.243367,2.847542,2.990249,3.555285,4.669772,5.228387,5.768894,2.429704,2.368217,1.630647,0.818796,2.873869,4.365729,3.945847,2.168482,-0.529536,-0.122617,0.761275,1.832315,4.060171,-0.805462,-0.590956,0.040686,-0.330004,1.995577,-0.891037,-1.646201,-2.006904,-0.861453,0.817574,1.107132,2.652495,3.255608,-1.697387,-1.167764,-0.541098,0.360105,-0.271053,2.850405,-1.385993,-1.24567,-0.873622,-0.303868,-0.874448,-0.263735,-0.410214,-1.46934,-0.868274,-0.601489,0.287587,0.702514,-1.817121,3.081711,-2.68656,-2.964457,3.350964
1b_b3007,1.676039,2.533899,2.399428,2.384117,2.361141,3.308536,2.416685,2.012147,2.115675,2.080075,2.077424,2.374367,2.629467,2.072757,1.746058,1.798075,0.995207,1.633709,2.341476,2.410741,1.781859,1.572979,2.810557,2.297326,0.715676,0.680718,1.358776,1.976822,2.317673,2.217618,2.446258,-0.894665,-0.367822,0.049336,0.650843,1.900864,2.6935,-0.887305,-1.190544,-0.510506,-0.238695,0.474862,-0.649287,2.275211,-2.688264,-1.986,-0.950682,-3.257073,-0.549274,-3.338882,-2.773245,0.386005,3.032007,2.244509,2.490772,-5.836364,-1.859025,-4.372736,-1.468243,0.734647,1.796804,0.425196,-5.875755,-5.483176,-5.269659,-2.006572,0.151823,-5.757038,-6.266459,-4.176376,-0.602896,-0.03365,-4.583226,-7.836287,-3.847459,-1.504666,0.83433,2.07059,2.318628,2.197881,-5.300271,-4.754323,-3.964996,-1.773836,0.951412,2.15473,2.134726,-2.013831,-4.562484,-4.479606,-2.297942,1.46662,1.919593,-3.116831,-4.154775,-4.849588,-0.926103,1.629732,-3.721185,-3.598244,-2.791556,0.659587,1.961489,2.561785,3.054658,2.651461,-3.409603,-0.692138,0.836176,2.579474,3.131057,2.890218,-1.078109,2.275214,0.959896,1.400402,2.802727,3.049535,0.963296,-1.628864,-0.200477,2.05338,2.772644,2.871886,0.783177,2.275211,2.275211,-1.235009,2.275211
1b_b3008,-1.692465,-1.262341,-1.646849,-1.695423,-2.079994,-2.193453,-1.848087,0.250315,-0.730687,-1.701995,-1.642351,-1.434737,-1.303556,-0.700365,-0.648179,-1.232008,-0.165791,-0.836336,-0.846641,-1.278532,0.085067,-0.621403,-1.245761,-1.912562,1.68578,-1.628813,-1.219178,-1.751226,-0.061186,0.127954,-0.72241,-1.633145,-2.201371,-0.896306,-1.070586,-0.45103,0.117695,-1.350539,-1.239632,-0.396814,0.225715,0.334308,-0.568229,-0.925092,0.332274,0.630352,0.692081,-0.495092,-0.868273,0.594634,1.142194,1.045928,0.556191,0.276469,-1.12364,-1.702234,-0.869827,1.542714,2.263323,1.513976,0.627771,1.04895,-1.504181,-1.61891,2.620522,3.129214,1.945963,-3.867464,-1.155957,2.217515,3.965679,3.4315,-1.314186,-0.459555,3.508195,4.341853,4.23627,1.273804,0.56641,-1.255226,-0.589688,1.122612,5.033971,5.847927,4.563582,0.938592,-0.678575,-0.949044,1.375435,7.000088,5.653758,2.431731,0.397946,-0.073993,3.133863,6.130478,2.984821,1.404898,0.416964,1.306376,3.291451,0.57019,0.109129,-0.865136,-1.76895,-1.657572,-0.146074,0.115192,-0.731364,-1.854938,-2.086408,-1.772074,-0.911768,-1.089664,-1.505174,-2.194744,-2.305986,-2.304579,-1.453353,-1.295921,-1.222979,-0.845173,-2.113817,-2.001787,-1.149105,-1.580898,-0.841217,-1.591966,-1.508048
1b_b3013,0.9783,1.332023,0.244037,-0.097129,0.019164,-1.068292,0.058045,-1.704722,-0.758253,-1.527671,-1.709243,-0.982755,-0.525715,-0.791322,-2.265963,-2.36581,-1.646019,-1.72638,-0.618769,-0.836634,-1.515589,-2.265049,-1.968833,-1.046962,1.359493,-1.014789,-0.823578,-1.061363,0.244001,0.209913,0.728979,-0.697708,-0.442654,-0.162958,0.08303,-0.157316,0.442399,-0.245469,-1.177965,-0.546018,-0.069061,0.807822,-0.104072,-1.024789,0.304285,-0.211233,0.401507,0.295401,0.29623,-0.505951,-0.50615,0.250971,0.95292,1.431377,1.605798,-1.11116,1.075344,-0.118938,-0.414502,1.38592,1.843733,2.151558,-0.47154,0.314147,-0.831297,0.109258,1.448847,-0.374817,-0.39944,0.434446,2.873148,3.198647,-0.345454,2.010798,3.74274,2.348159,2.908422,1.518896,1.554491,0.972399,0.279741,0.892236,1.538757,-11.355077,1.066432,1.314362,0.925899,-0.559366,0.493984,1.100337,0.359984,0.218301,0.510892,-0.612922,-0.376036,-1.001297,-0.343527,0.052301,-2.573154,-2.738971,-0.68611,-0.330562,-0.350593,0.509951,0.185366,0.377753,0.686995,0.21598,-0.325712,-0.079116,0.425269,0.168566,0.295401,0.285722,-0.152656,0.548899,-0.701064,-0.93656,1.064944,0.335568,0.814877,-0.998209,0.571901,-0.693943,0.252075,3.213259,2.334119,-0.217711,0.295401
1b_b3014,-1.97865,-1.730893,-0.292176,-0.038482,-0.019971,0.241102,0.323113,-0.405085,0.617942,0.014372,-0.320455,-0.000034,-0.01095,0.548971,0.489934,-0.123745,0.565965,-1.063975,0.349253,-0.21762,0.747994,-0.15007,0.188066,0.315738,2.468563,-1.513695,-0.535298,-0.682964,-0.678091,-0.221822,0.853547,-1.894764,-0.359491,-1.340817,-0.540396,-0.35283,1.243002,-2.085282,-2.315703,-0.533825,-1.513631,0.495423,-1.889247,-2.971109,-1.709265,-0.784733,0.118232,-2.294448,-3.16051,-2.889893,-1.421069,-0.471198,1.714335,1.687775,1.790701,1.111425,-1.237526,-1.773231,0.315722,0.377712,1.370361,2.973845,-2.848021,-2.610287,-2.173471,-2.218859,1.106552,-1.648272,-1.274435,-3.515926,0.319339,2.962228,-2.469038,-0.453749,3.325501,4.88925,5.535834,5.033018,3.597606,1.642538,-2.284328,-0.665344,1.299196,4.986638,5.493952,3.814855,1.919092,-1.077722,-0.575002,1.300005,4.179442,3.932369,2.918504,-1.861606,-1.261624,1.890543,2.677164,2.015191,-1.880517,-2.123723,-2.495208,-0.676736,0.654872,1.588502,1.346022,1.221045,-1.372378,-3.825164,-0.100862,0.634256,0.368784,0.509609,1.111389,-0.846108,-1.669617,-1.268851,-0.355128,0.235254,-0.623102,-2.170456,-0.357912,0.084542,-0.531451,-0.023913,-2.812263,-1.99289,1.111389,-2.152055,1.111389
1b_b3015,0.979074,0.992064,1.607341,0.079569,-0.043806,0.978689,0.170335,1.540762,1.88932,0.695478,0.636299,0.255721,0.499341,1.345505,1.780514,0.91762,1.962715,0.99962,0.665071,0.484088,1.724105,1.325575,0.796286,0.474756,2.038666,1.014423,0.496671,0.664239,-0.13087,0.11322,0.246718,1.508244,0.577999,0.090653,0.028339,0.193527,-0.212476,1.453589,0.189641,0.425713,-0.078785,-0.098303,1.026528,1.123494,0.319359,0.291202,-0.101807,3.208505,1.869715,-2.295407,-1.125162,-3.970538,-0.31828,-0.909524,-0.121138,0.472454,-1.191043,-1.59876,-1.581947,-1.698927,-1.022107,-1.255229,-1.686539,-1.641274,-1.987213,-2.510478,-1.383053,-1.503734,-1.628256,-3.209748,-2.015911,-2.124129,-1.339912,-1.86066,-2.466054,-1.417796,-2.236562,-0.7921,-0.296927,-0.024901,-3.862707,-1.138485,-1.660414,-1.367357,0.009049,-0.104706,0.001966,-1.940837,-0.807533,-1.474967,0.050596,0.084639,0.557434,-2.651982,-0.922848,0.181406,0.313942,0.740071,-0.110331,0.209642,0.334155,1.674319,0.137,0.631988,0.452877,0.453906,0.539194,1.245063,0.444242,0.056078,1.558323,0.628009,1.37851,1.264956,1.166515,0.528304,0.485401,-0.041831,0.782561,1.922351,0.175189,-0.044594,0.208023,-0.886599,0.786123,1.741954,2.612595,1.325227,0.060186
1b_b3016,-3.775121,-7.829146,-5.636667,-3.6913,-3.710865,-1.164953,-1.604935,-11.613233,-6.262686,-4.698657,-3.369044,-2.201554,-1.727866,-7.221043,-3.613747,-3.043708,-0.542309,-3.123368,-2.934247,-2.247999,-7.411079,-1.618544,-1.319798,-1.394295,-0.542348,-1.582901,0.017423,-0.704452,-0.621176,-1.737979,-0.845627,1.978951,1.172095,-0.241045,-0.036571,-1.333598,-1.203711,2.062656,0.861017,0.131423,0.791268,0.937267,0.702419,2.648493,1.11128,0.364906,-0.306209,-0.542309,7.78842,1.123128,1.153952,0.887307,1.164503,-0.327869,-0.488767,1.419333,2.348433,2.736369,1.983209,0.894494,6.077196,2.158986,3.210645,2.819673,1.152411,0.894721,0.920694,0.596094,2.765395,1.685293,1.363058,2.239026,1.398053,2.419276,3.770499,3.797035,5.121649,2.147385,0.074246,-2.49886,1.693583,3.50528,6.12554,-0.598523,3.806322,0.884506,-0.224639,3.574181,3.483595,6.247493,4.133549,1.143011,0.097533,3.787185,4.725811,5.401897,2.26972,-0.200312,-1.28425,1.765952,2.025098,-0.144497,-0.945227,-0.074453,-2.697783,-1.949435,1.516887,1.867951,-0.726207,-1.830577,-2.581087,-2.439804,0.961827,0.498061,-1.021152,-2.453621,-4.235606,-4.823811,2.134685,0.552033,-0.947044,-4.196284,-5.298501,-5.835758,0.559898,4.434092,1.461767,2.273326,-0.542309
1b_b3021,-0.172313,1.580173,2.407345,3.718314,3.867209,4.119754,4.273211,0.938947,3.363852,4.060898,3.624708,3.762194,3.574213,2.621425,3.23173,3.431352,2.514156,3.131672,3.799658,3.280984,2.810123,2.91203,2.778719,2.639016,1.789434,1.570583,1.916999,2.468524,2.774436,3.043017,3.957155,-1.256614,-0.057352,0.41699,1.094772,3.852461,3.073906,-2.991324,-1.398723,-0.718177,0.660518,1.320015,-1.952337,-3.193328,-2.43974,-1.201495,0.062325,-2.45269,-4.446672,-4.136179,-2.704333,-0.307842,2.58854,3.162108,3.775305,-9.190341,-6.717588,-6.241419,-1.245766,1.270754,2.667742,2.929466,-7.400313,-9.460435,-6.543035,-0.571952,2.219381,-7.513167,-8.920659,-4.322323,1.63329,2.487161,-6.506271,-5.387533,0.020451,2.310193,2.414175,3.106199,3.608907,4.101486,-5.606,-3.354941,1.171368,1.929499,2.637642,3.196005,3.878788,-5.687302,-5.569032,-1.283059,0.929386,1.854939,2.147733,-6.712464,-7.591198,-3.841569,0.494488,1.343043,-6.989044,-7.522789,-3.494687,0.740907,1.303408,2.478918,3.644953,4.365945,-6.091916,-2.23884,-0.627195,1.748956,2.426482,4.613539,-2.973938,-2.243154,-1.602584,0.882208,2.095313,3.438065,-2.718879,-1.581894,-1.177436,0.244263,2.02242,3.043352,-1.568696,-1.544774,-1.793892,-2.523413,4.419012
1b_b3022,1.70675,3.396286,0.159255,0.694634,1.75594,0.030296,0.85833,-1.754704,1.017788,1.208093,-0.864972,0.073596,1.033224,-2.494588,-1.24548,-1.963622,-1.713083,-1.565024,-1.079131,0.380502,-2.493754,-1.086715,-0.355147,0.058982,-1.141537,-0.291314,0.025207,0.302583,0.449292,0.905434,-1.22085,0.581071,0.444548,0.057149,0.522092,0.595984,0.523558,0.190019,0.28239,0.458751,0.598251,-1.137433,1.342744,1.032319,-0.662136,-0.910346,-0.977898,2.118411,0.603502,-3.091326,-1.678174,-1.832516,-2.189546,-1.465404,1.116151,-2.020406,-1.93055,-2.020367,-1.802783,-1.426129,-1.009257,0.643095,-1.341158,-0.899254,-1.469163,-1.460741,1.280688,-2.455485,-1.542424,0.571796,1.379668,2.050615,1.105075,1.202205,1.541093,-0.091092,1.971292,0.308403,0.911381,1.621996,-0.268044,0.069489,-0.661893,-2.702938,-1.098852,0.931844,1.380091,-0.280991,-0.963816,-4.230424,-1.431351,-0.446801,2.068645,-0.444461,-2.764848,-2.220136,-0.136375,1.24558,-2.315007,-0.764298,-0.890759,-0.04877,1.197724,2.000484,2.005679,0.333532,-0.091982,0.602217,0.598954,0.278391,1.729954,1.034967,0.083543,0.323647,0.652616,1.378879,1.085634,1.471566,0.26389,0.573101,1.497118,1.043383,1.536715,1.177794,2.44484,4.254034,0.175852,0.963383,0.931268
1b_b3024,1.311332,1.705208,2.015648,1.681898,1.338931,1.355984,0.563528,4.659366,3.292053,2.281275,1.986683,2.013024,0.815071,3.893079,2.659398,2.136966,3.372785,2.150161,0.918485,0.488085,4.25045,3.568672,1.905803,0.777806,2.681766,2.404394,1.076543,-0.084043,0.351115,0.414886,0.081474,1.053795,1.711382,0.896247,-0.430829,-0.321384,-0.566711,1.058793,-0.321706,-0.416463,-0.492684,-0.828903,0.721891,1.821091,-1.51097,-1.150974,-1.245481,-0.274007,0.039319,-3.114776,-2.474681,-1.704903,-0.567652,-0.954991,-0.118302,-2.666023,-3.014841,-3.927968,-2.877844,-1.581926,-0.698599,0.036321,-1.94293,-3.362757,-4.961493,-2.631569,-1.037194,-2.522192,-2.537344,-2.427967,-1.351346,0.957255,-2.038315,-1.51262,-0.636255,0.399522,0.478348,0.393097,-0.150406,0.736413,-1.322819,-2.309049,-3.001119,0.434822,-0.420652,-0.436479,0.217797,-1.034131,-1.606858,-3.040007,0.005941,0.121899,-0.18938,-0.96709,-0.565631,-1.850413,-0.730907,-0.292571,-0.345936,-0.068825,-1.767476,-1.070848,-0.070288,-0.148324,0.624595,0.546722,-0.752836,-0.803888,-0.273934,-0.101893,0.886392,0.561972,0.472087,-0.100188,0.20407,0.718566,1.389207,0.591057,0.71002,0.760139,0.352034,0.115574,1.005176,0.498085,0.633002,0.674431,0.530792,0.690507,0.530361
1b_b3029,-0.546201,0.788416,1.893192,1.715028,1.637061,2.094867,1.44608,2.199493,3.325069,2.825202,1.895976,2.207815,1.515607,3.385733,2.689941,2.289731,2.708818,2.224372,2.129909,1.648987,3.127716,2.969962,2.209955,1.697811,2.208215,2.187968,1.337584,1.212006,1.046591,1.074993,1.042189,1.117393,0.63918,0.842715,1.158906,0.994352,1.429128,0.223041,-0.060993,0.298941,0.52199,0.628772,-0.854293,-0.781262,-1.21434,-0.39752,0.066048,-1.584316,-1.635601,-1.764546,-1.06856,-0.027544,0.65101,1.002297,1.331679,-1.86579,-2.560434,-1.851062,-1.468981,0.107293,0.845687,1.17507,-1.192963,-1.292754,-0.835931,-1.17933,0.611798,-1.722935,-1.315658,-1.161874,-0.443651,0.838793,-0.489211,-0.963594,-0.55777,-0.02661,-1.53982,0.783543,1.505632,1.51041,-0.183656,-2.068975,-2.090323,-2.023169,-1.261175,0.913754,0.809646,-2.486712,-2.660672,-2.185939,-2.698218,-1.170018,-0.572633,-3.356549,-3.011323,-3.927268,-2.717592,-1.507578,-3.482876,-3.007993,-2.574451,-1.641363,-1.446252,0.318318,1.347757,1.816773,-2.921905,-1.629891,-1.664956,-0.521868,1.324036,1.658636,1.091171,-1.973787,-1.692393,-0.909594,1.106901,1.717515,-0.861433,-1.997053,-1.050437,-0.969845,1.074086,1.690526,-1.075381,-0.699872,-0.981779,0.07937,1.460013
1b_b3030,-0.626658,0.262798,0.956252,0.914775,0.881428,1.60173,1.620732,-0.741675,-0.495454,-0.45682,0.801983,0.675791,0.951265,-0.897284,0.367631,0.143955,-1.999593,0.254957,0.224544,0.000124,-0.667185,-0.325395,-0.100679,0.396769,-1.330037,-0.979186,-0.683377,-0.233743,0.412006,0.615622,0.377302,-3.01517,-0.720595,-0.264788,0.233398,0.458414,1.614791,-2.474793,-2.756301,0.200916,0.169536,-0.576119,-0.602757,-0.57923,-0.828503,-0.837406,-0.838592,-0.626817,-1.973977,-4.217417,-2.422226,-2.00993,-0.864155,-0.439788,1.821446,-2.051356,-2.078321,-2.030677,-1.924393,-1.504437,-0.82597,1.615849,-2.425179,-2.053511,-1.63641,-1.323545,-0.748797,-1.820552,-1.603839,-0.852352,-0.400977,1.59947,0.654262,0.978536,1.419449,1.488135,0.597003,1.594856,1.434758,1.253539,1.271255,1.465071,0.298074,1.159566,1.099675,1.473446,1.183145,0.969335,0.820427,1.138161,1.154487,0.937071,1.22937,0.868011,1.179669,1.032055,0.860786,1.082566,1.17125,0.354132,0.398844,0.821145,1.09336,1.059687,0.854297,1.442054,0.108281,0.730975,0.773487,0.886014,0.993358,1.66391,0.265821,0.008519,0.508124,0.2573,0.628452,0.740892,-1.241599,-0.222361,-0.087455,0.501555,0.622732,0.737384,-1.26323,-0.535727,-2.680642,-2.228628,2.687844
1b_b3031,0.457903,0.621057,1.062529,0.858206,1.170343,0.805137,1.864973,1.183839,1.341141,1.275233,1.692377,0.903964,1.33838,1.166571,1.773716,1.782389,0.846463,1.851019,1.44231,0.216573,1.990867,0.876703,0.711783,0.347901,0.052224,-0.395237,0.912941,0.137772,-0.686811,0.101351,1.193459,-0.718167,-2.053824,1.777157,-0.753548,-0.328132,1.255398,-1.432208,0.200703,-0.477593,-2.114789,2.141015,-3.087039,-2.84123,0.361873,1.717056,2.52268,-4.058759,-3.728,0.181113,0.080049,0.69639,0.419692,0.775278,1.682977,-0.138179,-0.443734,-1.819412,-0.352476,0.261032,1.66868,1.496982,-0.319022,-0.472455,-1.255521,0.542913,0.928745,-0.505898,-0.073673,-0.443984,1.013451,1.455399,0.019608,1.252167,0.740368,1.599703,1.936157,2.10784,1.586171,0.236859,0.590879,1.041872,1.348764,4.011855,2.01845,0.837767,-0.468414,1.091119,1.024292,1.927718,-0.091801,-1.17519,-0.531116,3.761701,1.878587,0.264489,-3.163949,-0.863757,-0.503151,-3.493612,-3.163149,-0.937473,-1.361145,-0.217658,0.488312,1.046175,-2.437845,-0.99272,-0.760182,-0.013146,0.302075,0.24389,-6.005292,-1.840797,-0.626347,-0.143372,0.560913,-0.431349,-3.01537,-3.552351,-3.270174,-2.039326,-0.521168,-0.475141,-4.072641,-3.394785,-4.0279,-1.763392,0.777969
1b_b3032,3.74826,4.607659,4.281691,3.880536,2.476286,1.761642,1.037421,4.777517,4.8441,3.605105,2.47565,1.619692,1.627324,5.015308,3.687012,2.156918,4.23981,2.723236,1.8368,0.575806,3.760377,3.082907,2.157868,0.624391,3.27241,2.491174,1.349444,0.998076,0.341,0.23558,0.889032,1.359119,0.913845,-0.29292,-0.074784,-0.397556,-0.474988,0.357754,-0.78463,-0.492341,-1.635724,-1.130049,1.879047,0.360634,-2.44701,-1.398487,-1.794748,0.255682,-3.92545,-4.952435,-2.929818,-2.261858,-1.101561,0.247181,1.230209,-1.280915,-4.544139,-7.269618,-5.526525,-1.963363,0.016688,0.26884,-3.29891,-4.089978,-7.468873,-4.668826,-0.358502,-0.751457,-3.745192,-3.231007,-0.627673,-1.252767,-2.182906,-2.233532,-1.082679,-2.237226,-1.630749,0.509346,0.916182,1.230079,-2.034,-3.195637,-5.598697,-4.55185,-1.103804,0.673982,0.905101,-1.971828,-5.128584,-9.32327,-4.127492,0.281688,0.645799,-2.482059,-4.558134,-6.671212,-1.304448,0.501969,-1.753686,-2.659517,-2.602982,1.417642,1.133397,1.266948,2.136496,1.589543,-0.355046,-0.651301,2.025058,2.378871,1.757519,2.715753,0.116026,1.519726,2.54831,2.133098,3.137757,2.746644,1.891369,2.649643,2.78144,3.284986,3.399621,3.170253,2.466516,2.642411,0.061257,0.692428,1.216848
1b_b3037,0.340554,5.602744,4.781953,2.993313,3.207834,3.157516,2.825189,11.412939,6.949777,4.509812,2.731627,2.543207,2.663851,6.848957,5.085072,3.997918,7.216258,3.197659,2.640728,2.0213,10.992631,5.24413,2.57644,2.401092,3.178712,1.706188,1.948607,0.127592,1.744203,2.320989,3.48549,-2.255217,-1.834853,-1.78205,-0.068601,0.974304,1.736671,-4.188345,-4.059192,-2.436979,0.854772,1.281319,-4.801165,-4.239272,-5.146176,-1.268783,-1.559557,-6.065773,-5.233318,-4.771402,-0.575418,-0.062362,2.319644,3.328821,4.08598,-7.61092,-7.719387,-3.065588,-1.105758,1.257102,2.897307,3.274385,-9.630671,-8.11714,-0.871104,0.154872,3.513698,-9.830804,-8.768646,-1.540063,4.220413,4.540282,-9.328119,-6.706614,-0.374025,3.192119,2.324262,3.428098,4.003335,3.824797,-8.954725,-5.795006,-0.586685,0.710848,2.675616,5.410323,4.578662,-8.268665,-8.703558,-0.000067,2.829931,1.905015,4.377322,-10.382686,-7.423189,-0.33631,1.847928,3.131234,-11.060235,-12.718734,-3.814188,2.757245,4.991924,3.811723,4.448301,2.751033,-9.771782,-3.612312,3.222895,3.565443,4.247661,3.804809,-5.778279,-2.825981,1.142692,1.863902,3.171265,3.523954,-6.813007,-3.206349,-1.230998,2.12765,2.736069,3.502477,-1.505525,-4.719562,-5.254408,-5.850856,2.828012
1b_b3039,-0.164124,1.929371,1.832094,2.185344,2.319047,2.220479,3.08201,-1.451774,1.395247,2.354299,2.489809,3.157496,4.038482,4.528378,3.02805,2.810264,1.94391,4.028129,3.878862,3.593369,2.485223,3.563087,3.973865,3.895813,-0.655883,2.706614,3.008137,3.427889,2.850564,3.230028,2.927431,2.249989,2.045612,2.577159,2.80999,2.414134,3.237613,1.489368,3.304578,2.56929,2.369863,3.13868,1.724216,2.608398,1.793252,1.175515,1.502921,-0.292792,1.89092,-0.237026,-0.401929,0.776898,2.563711,0.665233,0.97866,2.076173,0.168302,-2.890122,-2.160856,1.200092,-0.627293,-1.72235,-1.282366,-3.266981,-3.990635,-3.617616,-2.142115,-1.375229,-2.373925,-4.741417,-4.271752,-3.555175,-1.304074,-2.91313,-3.787652,-3.804954,-3.884496,-3.555174,-1.965099,2.052717,-4.206991,-4.08105,-6.348071,-5.116003,-3.833452,-0.276589,1.064309,-4.167633,-7.295667,-9.558308,-6.143416,-1.343463,-0.463859,-4.153562,-8.824362,-6.956167,-3.248078,-1.901441,-3.384822,-5.614323,-4.433161,-1.987886,-0.654684,0.950964,2.054712,2.198775,-1.747652,-3.113108,-0.664689,1.572004,1.820805,2.155129,0.379015,0.073712,-0.784727,2.053664,1.465389,1.989652,0.642122,0.681763,0.362774,0.853655,2.056076,1.995423,1.034903,0.282568,1.057115,2.251493,1.476501