File,EEG 1-bc_avg_c,EEG 2-bc_avg_c,EEG 3-bc_avg_c,EEG 4-bc_avg_c,EEG 5-bc_avg_c,EEG 6-bc_avg_c,EEG 7-bc_avg_c,EEG 8-bc_avg_c,EEG 9-bc_avg_c,EEG 10-bc_avg_c,EEG 11-bc_avg_c,EEG 12-bc_avg_c,EEG 13-bc_avg_c,EEG 14-bc_avg_c,EEG 15-bc_avg_c,EEG 16-bc_avg_c,EEG 17-bc_avg_c,EEG 18-bc_avg_c,EEG 19-bc_avg_c,EEG 20-bc_avg_c,EEG 21-bc_avg_c,EEG 22-bc_avg_c,EEG 23-bc_avg_c,EEG 24-bc_avg_c,EEG 25-bc_avg_c,EEG 26-bc_avg_c,EEG 27-bc_avg_c,EEG 28-bc_avg_c,EEG 29-bc_avg_c,EEG 30-bc_avg_c,EEG 31-bc_avg_c,EEG 32-bc_avg_c,EEG 33-bc_avg_c,EEG 34-bc_avg_c,EEG 35-bc_avg_c,EEG 36-bc_avg_c,EEG 37-bc_avg_c,EEG 38-bc_avg_c,EEG 39-bc_avg_c,EEG 40-bc_avg_c,EEG 41-bc_avg_c,EEG 42-bc_avg_c,EEG 43-bc_avg_c,EEG 44-bc_avg_c,EEG 45-bc_avg_c,EEG 46-bc_avg_c,EEG 47-bc_avg_c,EEG 48-bc_avg_c,EEG 49-bc_avg_c,EEG 50-bc_avg_c,EEG 51-bc_avg_c,EEG 52-bc_avg_c,EEG 53-bc_avg_c,EEG 54-bc_avg_c,EEG 55-bc_avg_c,EEG 56-bc_avg_c,EEG 57-bc_avg_c,EEG 58-bc_avg_c,EEG 59-bc_avg_c,EEG 60-bc_avg_c,EEG 61-bc_avg_c,EEG 62-bc_avg_c,EEG 63-bc_avg_c,EEG 64-bc_avg_c,EEG 65-bc_avg_c,EEG 66-bc_avg_c,EEG 67-bc_avg_c,EEG 68-bc_avg_c,EEG 69-bc_avg_c,EEG 70-bc_avg_c,EEG 71-bc_avg_c,EEG 72-bc_avg_c,EEG 73-bc_avg_c,EEG 74-bc_avg_c,EEG 75-bc_avg_c,EEG 76-bc_avg_c,EEG 77-bc_avg_c,EEG 78-bc_avg_c,EEG 79-bc_avg_c,EEG 80-bc_avg_c,EEG 81-bc_avg_c,EEG 82-bc_avg_c,EEG 83-bc_avg_c,EEG 84-bc_avg_c,EEG 85-bc_avg_c,EEG 86-bc_avg_c,EEG 87-bc_avg_c,EEG 88-bc_avg_c,EEG 89-bc_avg_c,EEG 90-bc_avg_c,EEG 91-bc_avg_c,EEG 92-bc_avg_c,EEG 93-bc_avg_c,EEG 94-bc_avg_c,EEG 95-bc_avg_c,EEG 96-bc_avg_c,EEG 97-bc_avg_c,EEG 98-bc_avg_c,EEG 99-bc_avg_c,EEG 100-bc_avg_c,EEG 101-bc_avg_c,EEG 102-bc_avg_c,EEG 103-bc_avg_c,EEG 104-bc_avg_c,EEG 105-bc_avg_c,EEG 106-bc_avg_c,EEG 107-bc_avg_c,EEG 108-bc_avg_c,EEG 109-bc_avg_c,EEG 110-bc_avg_c,EEG 111-bc_avg_c,EEG 112-bc_avg_c,EEG 113-bc_avg_c,EEG 114-bc_avg_c,EEG 115-bc_avg_c,EEG 116-bc_avg_c,EEG 117-bc_avg_c,EEG 118-bc_avg_c,EEG 119-bc_avg_c,EEG 120-bc_avg_c,EEG 121-bc_avg_c,EEG 122-bc_avg_c,EEG 123-bc_avg_c,EEG 124-bc_avg_c,EEG 125-bc_avg_c,EEG 126-bc_avg_c,EEG 127-bc_avg_c,EEG 128-bc_avg_c,Cz-bc_avg_c
1b_a3001,-0.338438,-0.888442,-3.106085,-3.628639,-4.325819,-4.369369,-3.198977,-0.154484,-1.092169,-3.841723,-3.314446,-3.861257,-1.603593,-0.667963,-0.903405,-2.973092,-0.915727,-1.661462,-2.971135,-0.667273,-0.602728,0.410793,-0.988678,-0.206781,0.241555,-0.308002,0.024646,-0.028828,-0.209333,-1.494379,-0.396446,0.547775,0.254484,0.077854,-0.500091,-1.249321,-0.751128,0.658088,0.261378,0.159812,0.579599,0.224197,0.477106,1.071378,0.888438,0.659317,0.659716,0.932897,3.375675,1.391484,1.656999,1.441013,1.460247,0.46372,0.158125,1.152385,1.321069,1.605731,1.457447,1.333006,1.182842,1.866843,1.600926,1.983536,2.004279,2.644109,2.269271,1.708393,2.185537,2.080921,2.509581,2.299771,2.424771,2.400054,2.117639,2.373715,1.669107,1.545449,-0.256504,-2.055894,1.780715,1.979426,2.260238,2.01544,1.949622,-0.312133,-1.824905,1.904948,2.364192,2.351307,2.410364,0.525307,-1.141892,2.828309,2.262106,2.413997,0.554657,-0.930225,2.410756,0.870411,0.62024,-0.528914,-2.070521,-2.779784,-2.256978,-3.365025,0.369058,-0.165776,-1.578136,-2.238905,-1.915941,-3.148187,0.997357,-0.079145,-0.467514,-1.274197,-2.340406,-3.737255,0.040861,-0.035029,-0.272641,-1.083467,-2.272738,-3.895486,-0.165266,-0.432687,0.3577,1.000096,-2.235021
1b_a3009,2.697102,4.401886,4.920979,4.418774,3.203955,4.370587,3.883851,5.686847,6.461911,7.40028,6.069801,5.080345,3.283988,7.454725,5.793193,6.509674,7.096981,8.480456,4.894949,3.530447,7.627057,8.080132,5.466764,3.700703,7.515444,6.047125,2.366139,1.770216,1.473828,1.100158,1.707476,2.657807,1.404909,1.021401,0.651249,0.869891,2.359771,1.018237,0.575537,0.462274,0.155421,-0.506568,0.401318,0.801516,-0.681384,-0.511916,-0.658609,-2.690515,-2.659586,-1.905741,-1.840792,-1.868263,-0.5357,-0.827856,-0.149974,-0.727022,-1.970378,-3.61914,-3.853111,-1.596264,0.125813,-0.96983,-11.170369,-5.442633,-4.165037,-3.60842,-1.881545,-2.733514,-2.95932,0.121954,-2.792313,-2.019028,-3.948843,-3.354625,-4.310582,-4.275957,-3.846592,-3.200703,-1.383613,0.458807,-5.405081,-5.043857,-7.760581,-4.829685,-3.266648,-3.127882,-0.598468,-10.03321,-6.739639,-5.981328,-4.811689,-3.58024,-1.365994,-6.400606,-6.549046,-5.608171,-3.175664,-1.835957,-3.74751,-3.5255,-2.801413,-1.498667,-1.224515,-0.473424,0.707962,2.324958,0.52777,-0.58781,0.18805,0.222927,1.320157,2.876991,-0.508012,0.31659,1.681638,1.400893,1.752761,2.1063,-0.773293,-0.210877,0.262637,1.773796,2.50235,2.073045,0.160794,0.024248,-0.192852,0.819261,1.698551
1b_a3010,1.215347,3.348765,2.79947,2.847229,2.676306,2.261406,1.896627,2.070265,2.155484,2.812076,2.162252,2.297528,1.551763,1.629201,1.385255,1.903444,0.499048,1.242857,1.51987,1.180005,1.066807,0.990708,0.861958,1.176019,0.193067,-0.345018,0.870422,0.884899,0.587254,0.535238,1.65297,-1.324435,-0.637094,0.173803,0.507054,0.63088,0.837512,-1.447156,-1.616078,-1.175155,-1.023551,-1.348689,-0.478489,-2.875894,-2.424744,-1.452467,-1.550165,-1.903043,-1.881368,-3.400439,-3.257503,-3.389657,-0.723916,0.862854,1.578418,-2.427899,-2.568046,-5.299024,-9.012519,-4.062097,-1.318904,2.033922,-1.881084,-3.468701,-6.814424,-7.699454,-1.820316,-2.612811,-3.607541,-2.270644,-2.457703,-1.176468,-4.418741,-2.248963,-1.429317,-0.777641,-1.010958,-0.141043,2.377062,2.286702,-1.340881,-1.743284,-0.912455,-1.053181,-0.359722,0.687163,2.304067,-1.640551,-1.956235,-1.329093,-0.331112,1.454248,2.835908,-0.668817,0.578043,0.96216,1.199061,2.239334,0.287356,-2.230931,1.242315,2.054476,2.562537,3.075923,2.616156,2.534249,-2.213145,0.559756,2.660037,3.301633,2.616806,2.987855,-0.52334,0.742576,0.733296,3.106475,2.741261,2.847547,-3.013747,-0.230999,0.112161,2.300007,3.363831,2.845475,0.130646,1.702163,0.091632,-1.292047,2.580799
1b_a3011,-1.138271,0.535147,2.197708,2.621397,2.663786,3.519465,3.061927,2.186071,2.603006,2.802711,3.043316,3.242994,2.613357,2.930588,3.297698,4.11056,2.482332,2.914687,3.405678,3.285763,3.989704,4.876485,3.548523,3.031449,3.27348,4.865198,3.183936,2.211529,1.99545,2.325722,2.379403,1.899699,2.703779,2.088166,1.668015,1.54049,1.039016,1.89206,1.433404,0.659965,0.142242,1.101879,0.560243,1.139562,-0.567755,-1.000922,2.673984,-1.706136,-0.601277,-1.103214,-1.0741,0.239881,1.042044,1.64937,2.428634,-3.756238,0.096669,-4.163216,-0.916042,-0.481409,1.220172,-0.198414,-2.424813,-4.297498,-6.167086,-4.12487,-1.658153,-3.786369,-4.254823,-5.093038,-2.285736,-0.436274,-3.270204,-3.614074,-2.710911,-1.808448,1.622702,-0.758074,2.012701,2.3552,-2.759017,-2.046442,-2.929623,-2.327587,-0.631038,-0.912422,2.079938,-2.734873,-3.845923,-4.453347,-3.692863,-1.217957,-0.402881,-5.310904,-3.419633,-4.102372,-1.738958,-0.703032,-3.296109,-1.995099,-2.097352,-0.89287,-0.422386,0.877777,1.681377,2.136142,-2.261384,-1.516404,0.262182,0.821881,1.758655,1.567245,-5.175658,-2.168388,-0.723431,0.605641,0.787087,2.916631,-1.135839,-1.764217,-1.836739,-0.866807,0.747944,1.984779,-3.243064,-1.869404,-2.908751,-1.896247,2.060158
1b_a3012,-0.546586,0.743241,1.089428,0.7845,0.977535,1.224537,1.793973,0.171604,0.636419,1.160285,-0.006102,0.144695,1.151274,-0.132832,-0.055942,-0.569557,-0.27266,-0.298408,0.74492,0.62214,-0.098048,0.505196,0.095639,0.558221,0.306189,1.108634,0.65916,-0.840029,0.729703,1.076504,1.986243,-0.218864,0.014201,0.787547,-0.864009,0.829114,1.929279,-0.58345,0.407257,2.043613,0.007302,1.219193,-1.15551,-2.030802,0.47889,2.424344,0.820315,-2.766886,-1.857642,0.396219,1.427354,1.291798,2.320474,2.541864,2.316812,-2.004454,-2.170288,-0.76202,1.123716,1.414103,2.553247,3.326331,-2.138346,-2.156017,-1.621144,-0.566833,1.378563,-1.72479,-2.577727,-3.267133,-2.045354,0.535025,-1.494653,-2.685143,-3.561794,-1.443991,1.339237,3.553105,2.737677,2.547347,-1.637274,-3.034636,-3.825634,1.617055,2.236586,3.0407,2.108123,-3.202666,-4.702639,-4.172582,-1.222064,1.869796,2.077238,-3.684582,-4.12985,-4.127496,-0.686134,0.91033,-3.776246,-3.898568,-3.144618,0.04027,1.317587,2.121615,1.474757,2.321831,-3.268441,-1.546147,1.310629,2.085817,0.775699,1.637563,2.315251,-2.279957,-0.428907,3.00924,0.238094,0.867243,-1.484672,-0.403669,-0.468922,1.390164,1.918762,0.56426,2.315251,-1.892277,-1.352319,-1.02576,2.315251
1b_a3017,1.194131,2.262391,3.483683,7.828491,2.205717,1.862056,-1.461247,6.234741,5.693305,4.398053,4.134383,7.066158,-0.601588,7.643016,5.575043,5.173579,7.199648,4.896831,-0.466086,-0.913512,6.618068,4.904722,2.988698,2.408841,4.188861,0.938512,1.857303,-1.877283,-2.95394,-0.862953,0.256859,-0.608551,-2.833565,-2.708054,-0.499441,1.631409,1.135697,-3.116066,0.969043,0.422172,0.065956,0.186741,-2.114368,-1.583077,-0.751742,0.056797,-0.186137,-3.515405,-3.117414,-3.789948,-2.331022,-1.236164,-2.707698,-1.995119,1.854154,-3.897577,-4.117826,-6.567207,-5.42521,-1.960647,-0.5831,-0.036355,-5.11393,-5.149797,-8.076785,-5.084153,-1.696502,-4.15026,-4.333209,-2.352125,-0.71584,0.362519,-2.238806,-1.089672,-0.226622,-1.737165,1.289685,1.37429,2.047156,1.116167,-0.178316,-1.614726,-0.246419,1.367496,1.764078,1.740878,2.217604,-1.885244,-0.160184,1.371248,1.852808,1.936056,0.335069,-1.88841,-4.444067,1.705202,1.032954,1.34039,-3.435089,-0.551992,-7.67754,-0.151581,0.527356,0.53043,0.840108,1.806822,-3.970397,-0.720338,0.942899,0.394875,1.867643,1.88257,-4.792829,-2.400763,-0.710669,2.34412,1.746971,6.539252,-6.082672,-3.79148,-1.283409,1.321834,2.095596,2.063976,-1.878558,-3.421068,-0.570912,1.208728,2.337991
1b_a3018,3.970136,4.038217,4.453033,2.595724,3.004376,2.184912,1.368298,6.625905,3.14778,2.257692,3.379135,2.949383,1.003107,5.0351,3.888522,3.936848,3.831524,3.209443,2.671185,0.789369,4.99676,3.307163,2.793233,1.035529,3.743988,2.52294,1.113773,1.7047,2.074316,2.199071,0.570321,2.607085,1.630613,1.626034,1.575746,1.734647,0.189406,3.674958,1.202241,1.296867,0.763524,0.192501,-0.525455,2.041102,-0.991776,-0.458846,-0.611572,-0.069108,-1.079059,-3.168673,-3.91075,-2.333465,-1.293644,-1.215584,0.437327,-3.64754,-2.029816,-5.810561,-5.253465,-3.040473,-4.09958,-5.197238,-4.572388,-3.836977,-6.383654,-4.311299,-5.866244,-2.841389,-3.274231,-5.130048,-4.877743,-4.722667,-4.602545,-4.949193,-5.485903,-4.811223,-5.110754,0.326546,0.861348,0.531678,-4.530563,-4.710601,-5.614274,-5.23198,-1.384843,1.018842,1.446088,-4.117978,-4.644024,-5.581018,-3.140085,-1.333171,1.205668,-4.71452,-2.993421,-2.977664,-2.22703,1.046645,-2.539508,0.219206,0.124347,1.189809,1.633572,2.421023,1.644686,1.27116,1.301522,1.246806,1.625813,1.926971,2.002947,1.917395,1.420111,2.598557,1.76555,2.18642,2.065205,3.420613,0.772797,2.371956,2.615072,2.81329,3.281245,3.608267,1.517741,1.895155,1.846379,1.24929,1.490292
1b_a3019,-2.96763,-3.422202,-3.825804,-2.359534,-2.161739,-0.490184,-2.990483,-5.721403,-4.635732,-3.43248,-4.54019,0.635501,-4.690259,-8.075996,-5.20298,-4.776642,-8.09454,-1.644532,-1.709889,0.46576,-7.210474,-3.786906,-0.61013,0.416372,-0.129915,-0.278956,1.118908,0.752358,-4.341655,-2.57752,-1.942245,-2.192605,-0.450982,0.998236,-2.804318,-3.140989,-0.565039,3.199879,-0.096935,-3.252107,-1.878493,1.029042,-0.237168,-0.942972,0.328641,0.572794,2.875502,-1.404859,-1.27668,-1.03011,0.194335,2.669621,1.6064,3.076702,1.707784,-2.868186,-0.978962,8.156309,4.769036,1.389329,0.36485,-0.095265,4.767946,3.299356,3.154936,2.335979,4.582131,5.813917,4.838524,4.071739,3.267105,0.003785,1.824812,3.283814,2.909567,-0.25664,-2.289782,0.49894,1.2155,2.569737,-0.746654,2.083363,-0.827437,0.157743,0.221873,1.349676,2.214277,0.63946,-1.83355,-0.478376,0.520072,0.990432,2.052402,-1.456271,-0.21862,0.650481,1.095915,2.204581,-0.164756,1.197863,1.099609,1.823977,3.018602,2.630889,2.307058,2.486253,1.311435,1.906415,2.440301,2.074263,2.348163,2.145187,1.387511,0.436443,0.7021,2.569951,0.480133,0.489922,1.483092,0.428913,-1.204035,-2.50879,0.484884,-1.767038,-2.777805,-0.735702,-0.979391,-2.840778,1.722933
1b_a3020,3.433878,4.948441,6.52371,6.707607,6.819926,6.859531,0.136172,5.972773,6.98553,6.794279,7.490888,5.851973,5.765582,6.154438,6.23894,6.710324,4.850782,6.517175,6.90954,4.108389,5.772789,7.239742,6.559837,7.19627,8.800165,5.360068,6.11255,4.362156,5.454955,1.905177,1.80924,2.362664,2.231744,2.005826,0.441351,1.347152,2.348673,0.075641,-0.111334,-0.601298,0.976455,0.440308,0.565804,-1.105483,0.381796,0.300737,-0.011602,-4.064689,-3.283045,-5.610233,-5.835507,-3.011211,-1.7636,2.006016,-4.032701,-5.038144,-6.468938,-3.32459,-4.622932,-4.988839,-0.704694,-5.333673,-4.581983,-3.92082,-4.144621,-5.01244,-3.94144,-4.672081,-4.854449,-5.043763,-5.036556,-4.080092,-5.256523,-5.353987,-5.767848,-4.640285,-5.745573,-5.506799,-2.928074,3.197897,-5.61321,-5.769419,-7.092453,-6.619961,-5.422059,-2.703821,3.146628,-6.947906,-9.639974,-6.746576,-4.963013,-2.864417,2.413763,-8.600687,-8.148114,-7.952314,-3.232405,0.959483,-7.197722,-7.983583,-4.344279,0.731993,0.59755,3.43172,3.591814,3.736305,-8.423732,-0.600657,2.416135,3.703893,3.90351,3.507593,-1.239283,-1.054393,1.320619,2.98261,4.385693,3.524922,2.169259,1.440446,1.428128,3.114753,7.887259,3.750468,1.693829,0.772365,-2.285142,0.000077,4.199258
1b_a3025,0.989995,3.30231,7.591639,7.436794,6.463438,6.277837,5.869471,8.665989,5.625724,5.777936,5.136677,4.811982,4.528538,6.059224,4.522193,5.364281,6.098885,5.061713,4.457788,2.749703,6.169561,3.634681,2.288254,2.375483,3.835134,1.176971,-0.012462,-0.210407,2.188263,3.378224,3.679173,-0.664526,-1.083121,-1.27579,-0.508197,1.632723,2.425538,-1.347326,-1.075793,1.659269,-0.511172,0.343071,-1.697173,-2.257959,-4.556109,-3.313877,-2.045503,-3.628594,-3.152609,-4.347515,-3.120564,-1.018516,0.456988,1.992074,2.281867,-4.453531,-6.769359,-6.788934,-4.186461,-2.373921,1.182956,0.936184,-2.696662,-6.390102,-5.913029,-4.679346,-3.823606,-5.00846,-5.606608,-3.278105,-2.689856,-2.194028,-2.951827,-2.85044,0.490946,0.71384,1.016147,1.767193,1.814014,2.99506,-4.15877,-4.544353,-3.921253,-3.456825,-1.454671,1.449448,2.518049,-5.92553,-7.160651,-5.691577,-2.369595,0.151892,1.115128,-6.730413,-8.21447,-4.752199,-1.38294,0.951225,-6.128385,-7.04457,-5.459649,-0.23705,1.49319,2.590132,2.342486,5.711291,-4.774259,-2.170303,1.647288,1.89266,2.661315,6.781811,-4.263435,-0.92388,-0.84386,1.755214,2.536047,6.963715,-2.631323,-1.645639,-1.055572,0.182798,2.698547,7.196482,-1.628354,-2.4475,-2.133527,-1.53126,3.298852
1b_a3026,1.081167,3.150918,5.61946,4.792147,3.482392,2.637734,2.305792,2.469977,1.598113,3.461447,3.547718,2.451968,1.435869,2.21117,3.42938,3.837975,0.968624,2.703003,2.493841,0.742305,2.541016,1.681139,2.234451,0.704273,1.311427,0.541019,0.322492,0.290046,0.200227,0.274385,-0.471892,-0.583223,-0.463925,-0.164563,0.231146,0.49932,-0.291686,-0.941771,-1.066421,-0.117162,0.241455,0.346398,-3.174907,-2.669959,-2.187214,-0.414811,-0.096227,-7.798437,-4.588925,-1.193623,-0.403084,0.886433,1.275966,0.611838,0.353847,-1.741748,-4.689066,-1.865532,-0.67477,0.398814,0.683661,5.292002,-3.094064,-2.870008,-1.771577,-0.31819,1.194301,-3.770306,-3.182596,-0.989019,0.128518,3.372435,-2.723698,-3.314523,-0.711515,0.34093,3.049416,2.423316,0.561128,1.350079,-2.668206,-1.840226,0.243673,0.804318,1.281662,2.806383,0.809488,-2.176345,-2.54512,-1.501143,-0.77398,-0.321832,0.492683,-2.525263,-4.04482,-3.109341,-2.088399,-0.509866,-4.109994,-4.559888,-3.503702,-1.471617,-0.282219,1.325293,1.797529,3.874963,-5.720474,-3.706584,-1.21127,0.579556,0.564683,2.659815,-2.596708,-1.385606,-1.371853,0.160078,1.340634,2.23776,-3.14802,-1.616036,-0.537047,0.314935,5.491301,4.164482,-0.982805,-1.121567,-0.055249,-0.776721,1.894627
1b_a3027,2.720459,4.190578,2.78553,0.829724,0.606992,0.596118,0.843063,6.488026,3.952266,2.750103,1.292169,0.674255,0.256417,5.025994,3.235086,1.965028,4.825792,2.342399,0.94403,0.070841,4.112947,3.14539,0.674767,0.871282,3.48935,1.341285,0.78521,0.169018,0.700722,0.651493,-0.503647,0.552581,0.754423,0.364057,0.671043,0.762813,-0.506362,0.795646,0.411653,0.386126,-0.974999,-0.194074,0.870172,-0.43979,0.138155,-0.41499,-0.520622,1.028607,0.140619,-1.350643,-0.422662,-1.445405,-0.949696,-0.20687,-0.903736,0.033869,-1.85356,-5.441982,-1.665489,-0.861887,-0.118041,1.837648,-2.918178,-3.213655,-2.249028,-2.000386,-1.191568,-0.327842,-1.741999,-3.839331,-1.181875,2.116245,-2.764629,-2.151907,-0.908741,-1.276927,-1.525616,-0.4134,-1.207455,-0.103207,-3.602215,-1.689956,-3.96157,-3.263006,-2.133941,2.248834,-0.318455,-3.783569,-3.633989,-3.467094,-3.233395,-2.264031,0.022372,-4.070043,-5.221119,-4.546507,-2.677677,-0.616304,-3.778059,-0.962986,-0.931593,-0.562662,-0.117643,0.569592,0.738263,1.593735,-0.453401,0.283181,0.496621,0.793044,0.316019,2.190709,-0.402129,-0.452656,0.758003,1.554156,1.243663,1.617339,1.669994,1.642455,2.984207,0.73179,2.657004,1.37692,2.273511,1.223585,0.641876,0.615917,0.491424
1b_a3028,0.512165,3.380558,2.653831,3.471277,3.031468,3.731218,3.643134,6.993841,4.383422,3.666708,4.170497,3.836426,5.210647,4.781064,4.831282,4.565158,6.26973,6.333522,5.001452,4.964083,7.15281,7.818057,4.881591,4.951841,7.521344,4.540252,4.00235,3.479923,3.335664,3.763611,3.707894,2.070333,1.117555,3.044221,2.496155,2.638768,2.895968,1.441465,0.418613,0.200249,0.173723,0.022154,1.237085,0.574822,-2.137066,-4.54859,-3.817556,0.793396,0.427638,-6.321977,-6.514898,-3.680416,0.307578,1.812734,3.686588,-0.522109,-3.271935,-9.880986,-11.743395,-3.306107,0.600758,1.496379,-0.600368,-4.708679,-11.465801,-8.625416,-1.130936,-1.28525,-2.786151,-6.917837,-2.515389,-1.327999,-2.302087,-4.979278,-4.506248,-4.787608,-1.338687,1.024023,1.577847,3.16702,-3.030478,-5.618809,-7.54995,-4.778519,-0.59385,0.575996,1.561986,-3.554429,-6.028242,-8.123759,-4.121392,-1.161674,0.608407,-3.718371,-5.142114,-5.73785,-1.533233,-0.977815,-3.128838,-3.785237,-3.652161,-1.241728,-0.392132,0.99588,1.843689,3.249966,-3.198697,-1.477649,-0.034485,0.286294,1.212827,2.724408,-2.476778,-1.119577,-0.719433,0.786512,1.17913,2.005307,-2.545326,-0.988244,-0.44946,0.690027,1.678679,2.497318,-1.05694,0.933587,1.94316,0.471607,3.903258
1b_a3033,-2.779958,-6.929111,-6.671049,-5.68756,-5.471368,-4.741207,2.061394,3.26522,-4.209765,-6.053309,-8.718368,-7.213666,-1.387383,-1.089098,-2.788986,-6.098233,3.2808,-5.479304,-8.521261,-3.267768,1.02181,-6.726717,-7.849461,-3.216884,-1.08671,-4.031107,-3.170262,-0.622646,-1.607687,0.872085,1.057168,-5.673493,-2.158397,0.191581,-0.394174,-0.891001,1.408908,-1.660412,0.605278,0.147204,2.924186,-0.09302,-0.870891,-0.598249,1.63636,0.124778,1.335393,0.167104,2.224508,2.17329,2.036407,1.897724,1.706138,3.266863,0.210415,1.128858,0.730443,2.958128,2.574012,3.321275,4.713853,10.694988,0.578099,3.368743,3.872813,-1.488644,3.183638,-1.951728,3.701113,1.681881,6.677078,12.906424,-4.780462,1.275589,6.729416,5.498619,11.213782,8.754999,2.997125,-2.706972,1.337667,6.151146,9.957935,11.478181,7.42834,9.631833,-4.508141,-1.447701,7.694063,4.20515,11.865297,5.121037,1.583655,4.224154,1.210967,3.613459,4.468416,3.919205,-3.787091,1.796705,3.965878,2.286159,0.907506,-1.698586,-3.83791,-4.102154,1.759917,2.049793,0.234515,-2.253438,-4.62898,-8.117743,0.071094,-1.568346,-0.415167,-5.373204,-5.822711,-7.513995,-0.891591,0.492087,-3.255747,-5.043284,-4.544742,-9.296276,-3.013142,-6.429784,-1.594328,-3.559484,-8.239804
1b_a3034,1.677132,3.577928,3.250923,2.136203,2.185929,1.492167,1.389239,1.945006,1.538906,2.456602,1.128368,0.606973,0.21703,1.019721,0.784226,3.172194,0.01907,2.847972,3.412511,0.13677,0.487678,2.747321,-3.484212,0.240973,-0.054936,0.464511,0.065806,-0.014763,0.741273,0.651705,-0.187693,-0.147926,2.563208,0.77697,0.678828,0.275995,-0.131917,0.153707,0.669758,0.370133,0.480558,-0.25699,0.052172,0.244864,-0.337828,0.172301,-0.238848,-1.515204,-0.659249,-1.571711,-1.642407,-0.537644,0.216798,0.091553,-0.603048,-0.580007,-0.110677,-0.295709,-0.496005,0.697749,-1.204281,-2.44581,-1.022014,-1.100076,-1.189008,-1.679811,-1.91553,-3.766933,-3.004907,-2.958174,-2.669059,-2.696248,-3.218682,-2.612902,-3.825414,-2.170037,-0.843145,-0.821917,0.255148,1.332934,-3.932393,-4.355584,-2.225788,-2.653498,-0.643983,0.847364,1.287276,-4.055799,-1.806908,-2.996084,0.143831,0.325049,1.402684,-3.041005,-4.622423,-0.080796,0.238964,0.429832,-0.861018,1.095466,0.413732,0.627861,0.786316,2.80787,2.089038,2.068974,0.416177,0.515362,-2.600945,1.083324,-0.138104,2.344285,1.737133,2.017457,-0.376883,0.160694,2.828245,2.651013,1.917668,1.308712,0.795659,1.576797,2.605632,2.730705,1.558754,-0.254787,-2.949236,-0.952396,0.319657
1b_b3005,1.879701,3.407388,4.314097,3.433415,4.38731,5.697619,-2.313906,3.268459,4.725671,8.262631,2.906071,4.477321,2.476314,3.735246,4.332829,3.408048,4.594659,4.298902,1.617207,3.832349,3.938387,5.437544,6.601898,1.995669,4.367764,5.512429,6.377578,3.836501,2.699327,-0.237541,2.265038,2.334665,5.548448,1.927319,2.272549,0.898189,3.101116,0.643905,-1.198602,1.727917,1.125829,2.104087,0.450933,-3.903826,0.331403,1.553696,1.893077,-1.351372,-2.23507,0.484482,0.479013,-0.932588,-1.028211,-2.131644,5.089363,0.806762,0.964513,-5.861646,-1.578548,-0.261576,2.830088,-0.063411,-9.142138,-9.043004,-8.162897,-6.613103,-6.278315,-4.122471,-4.401018,-4.628947,-3.739673,-0.584681,-5.388735,-6.184179,-7.03933,-3.254955,-4.946134,-2.924296,4.14831,5.38964,-4.017045,-3.40414,-3.559531,-3.465958,-1.840409,3.14501,2.576121,-1.270572,-3.551103,-3.410793,-2.891206,-3.446379,1.362996,-4.238533,-3.703878,-3.63449,-4.319351,-1.00646,-3.402891,-8.282144,-8.651091,-1.364791,0.432566,5.084232,1.42517,3.89224,-13.335747,-3.77109,0.78322,3.080757,2.427377,4.042769,-6.367577,-4.587209,-1.212724,1.319934,2.252849,4.127061,-3.481342,0.330456,-6.069077,2.563809,2.338643,3.756549,1.031773,1.764632,0.64307,0.7384,4.525029
1b_b3006,2.254614,3.45007,2.812767,3.099642,3.477555,3.467205,0.813433,7.256415,4.986244,3.717408,4.535068,1.484249,-1.521849,3.952431,5.292258,4.825421,8.331556,3.983986,2.886565,-0.988413,6.3914,4.168765,2.604239,-0.698613,5.576372,2.477946,-1.421548,-1.32684,-0.766975,-0.338513,2.631176,1.455109,-2.288379,-1.414777,-2.038939,-0.28018,-4.76207,2.246713,-3.215162,-3.14416,-1.427122,-2.516814,-1.680746,-0.519824,-7.06623,-3.55222,-3.035646,-5.632638,-0.846283,-5.14648,-5.891031,-2.545492,-0.375693,-0.759231,3.005989,-4.994953,-6.854589,-7.630088,-4.808635,-0.061591,2.575976,2.001017,-9.241997,-8.486109,-7.364384,-5.568555,1.698287,-6.062007,-5.47703,-5.376146,0.58116,1.860419,-3.139113,-4.599298,-0.25459,0.197845,2.350651,3.144652,3.940751,3.769815,-0.676147,-0.302375,-0.448285,-0.805583,-1.453232,4.55099,4.615541,-0.40297,-2.053086,-1.268709,-0.875119,-1.347188,2.305846,-2.619257,-0.902052,0.072608,-0.075247,4.573296,-0.393212,0.902699,0.397069,1.386955,1.743021,2.374851,3.892344,3.700738,0.38126,1.017187,1.153371,1.418668,1.050228,3.949109,-1.363082,0.217303,0.999864,1.220229,2.742011,0.849865,-2.457667,-1.930541,0.439533,1.334384,1.368506,0.528917,-0.436337,3.310524,-11.826327,-3.380664,4.335954
1b_b3007,2.705503,4.15137,3.639433,2.864899,2.1105,1.206265,1.87212,7.744868,4.472239,3.409858,2.841465,2.001982,1.847495,4.340649,4.562734,3.451754,3.826641,2.799047,1.826531,1.554071,4.449355,3.134886,2.695234,1.789186,4.31597,2.364567,1.476793,0.761913,1.136108,1.325881,1.211345,1.11772,1.554834,1.639345,0.546726,0.246673,1.463315,0.364136,0.296972,0.041203,-0.341575,-0.45533,-1.137633,1.982335,0.039645,0.050625,-1.333239,-3.016755,-2.476957,-3.984406,-3.830614,-1.292644,-0.377927,-0.108012,1.913405,-4.291432,-4.040152,-4.247601,-2.146825,-1.071806,0.982775,0.367874,-2.97652,-4.326914,-4.708806,-1.819047,-0.691836,-4.548093,-4.169627,-4.288558,-1.442237,-0.836169,-3.667839,-4.638178,-4.53202,-1.363805,0.663921,0.366606,1.359495,2.078989,-0.43905,-5.878363,-4.232957,-2.665606,-0.570188,0.497984,1.473113,-3.929239,-4.732505,-4.856665,-4.040627,-0.10914,0.261208,-5.94741,-3.273739,-5.903123,-2.149252,-0.084081,-6.020514,-2.76719,-3.139755,-0.85523,0.255424,0.742018,2.00238,1.718601,-4.011395,-0.972098,0.124847,0.661478,2.146128,2.158397,-0.237834,1.982335,1.032678,1.343783,2.368067,2.526803,1.106645,0.870161,1.105954,1.455727,2.420645,2.823633,2.576678,1.982335,1.982335,0.409565,1.982335
1b_b3008,0.250995,-0.495633,-0.845823,-0.416211,0.796789,0.421164,0.79598,-2.003372,-1.370104,-0.587466,-0.517931,-0.274774,0.393895,-1.985711,-1.957799,-1.173165,-2.521901,-1.910987,-1.664051,-0.721177,-3.746213,-2.665042,-1.727751,-0.614553,-8.651787,-1.187742,-0.738427,0.695014,1.607692,1.775843,0.773153,-1.102697,-0.082166,1.060582,0.79806,0.871327,1.704342,-0.013792,-0.351747,0.347452,1.192885,0.90797,-0.132094,-0.092641,-0.649059,-0.27854,0.360109,-3.74941,-2.127922,-1.305923,-0.562315,0.582467,1.147872,1.62766,1.63571,-2.773991,-2.748851,-1.800382,0.033573,0.590922,1.282302,1.291689,-4.838818,-4.454209,-1.789902,-0.15622,0.944539,-2.335558,-4.144574,-1.811633,0.393856,0.479547,-3.396304,-2.756146,-0.095302,1.120134,2.15989,2.165525,2.65263,1.865641,-2.914051,-1.360176,1.824588,3.685965,4.308238,3.068144,2.53725,-2.271408,-0.935157,5.402678,4.421205,3.377519,2.894934,-1.98743,0.230895,4.480787,2.645782,2.901162,-2.038196,-0.922668,0.74081,1.559578,2.690605,2.460913,1.574241,1.139251,-0.261261,-0.334344,0.99715,1.382859,1.30211,1.214265,-0.350538,-0.400782,-0.750289,0.977206,0.854341,0.500687,0.85234,-0.488569,-0.937237,0.053149,0.523023,0.189071,-0.067832,0.917276,0.009651,-0.431002,1.333874
1b_b3013,0.992955,-0.705128,-0.664827,-1.561104,-1.635386,-1.272324,-1.339096,-1.423335,-0.496393,-1.386552,-1.386024,-0.923422,-0.831338,-1.005609,-0.655727,-1.442744,-0.394774,-0.609563,-0.947699,-0.996716,-1.331677,-0.796373,0.20283,-1.317435,-0.093705,0.206586,0.267279,-1.439696,-0.938634,-1.005272,-0.89022,0.114019,-0.167188,-0.396653,-0.882442,-0.643693,-0.323961,0.827656,1.365949,-0.055318,-0.311668,-0.354403,1.221529,1.48004,0.036114,-0.067201,-0.846685,-0.720406,-0.720315,-0.417308,0.093761,-0.399741,-0.199598,-0.106744,-0.729944,1.242813,-1.052085,0.047066,-0.823589,-0.158308,-0.443879,1.031289,0.589042,1.152617,-1.553765,-0.937024,0.194796,1.023713,1.938868,-0.355418,0.040269,2.241385,0.575978,0.818884,1.186269,2.39055,1.545336,2.787277,-0.197037,-1.127758,0.333679,1.919192,1.790899,3.788314,1.264642,-0.11272,-0.426362,1.753628,1.749546,0.987186,0.977029,0.494997,-0.063411,1.794783,1.125232,0.713897,0.711761,-0.156274,3.050413,1.76509,1.043851,-0.187696,-0.204348,-1.09031,-1.461276,-1.526544,1.368543,0.536002,-0.614324,-0.860966,-1.440598,-1.674873,-0.720406,1.24162,-0.561788,-1.57275,-2.38514,-2.033206,1.271354,1.205047,1.196132,-0.394956,0.496397,-1.317807,1.215288,1.01283,-0.165455,0.752298,-0.720406
1b_b3014,-0.156429,-0.254955,-0.132607,-1.684742,-0.57195,-1.018565,-0.281953,1.273206,1.077358,-1.169613,-0.480821,-0.131998,-1.810391,1.539426,0.897973,-0.35684,1.853289,-0.419152,0.076502,-1.185009,0.928875,0.695632,0.012635,-0.676565,0.547451,0.461556,-0.952627,-0.97363,-0.991779,-1.096442,-0.292392,-1.006869,-1.033627,-1.378525,-1.468942,-1.259199,-0.523012,-0.85694,-2.670899,-1.622242,-2.063281,-0.886347,-1.24689,-2.029742,-1.937375,-3.262105,-2.450562,-1.293962,-1.182017,-2.759435,-2.586106,-1.889489,-0.682064,-0.029203,0.882959,-0.146626,-3.585984,-4.311572,-4.573834,-2.241353,-0.259394,0.41991,-1.877085,-4.021646,-5.102602,-4.96733,-1.60734,-2.891549,-2.475214,-4.792291,-2.882565,0.40737,-0.666737,-0.0846,0.247971,2.807378,3.463021,3.228668,3.207992,1.280254,-0.616122,-2.097461,2.727458,5.101966,5.294571,5.154561,2.710503,-1.023271,0.186918,4.049699,6.141399,5.848452,5.265973,-0.706693,-0.285561,3.354692,5.953676,4.897465,-0.870525,-0.707454,-0.359354,1.881391,3.837344,3.214533,1.542171,0.25094,-1.481129,-0.250508,2.753239,2.852779,1.882376,0.25605,-0.133257,-1.235821,0.591954,3.067232,0.458055,-0.912415,0.536597,1.621858,0.992369,0.247736,0.929764,-0.101111,1.114214,-0.172627,-0.133257,-1.562519,-0.133257
1b_b3015,0.986102,1.69499,1.057008,1.313233,1.146766,1.043385,0.396919,4.41349,4.956978,2.749291,1.551291,3.328815,1.005393,7.708058,4.588327,2.94869,7.047377,3.776334,2.657362,1.64735,6.518245,4.966994,3.449538,1.453671,7.138067,3.301752,1.666068,0.769134,-0.578228,0.189019,-0.220787,3.076102,1.782443,0.776894,-0.329818,-0.059292,-0.515799,2.000675,0.178467,-0.238541,-0.171436,-0.667029,1.530957,1.341555,-0.396446,0.077878,-0.594333,1.150156,1.648768,-6.344215,-1.86156,-2.743758,-1.437451,-0.745153,-0.259079,-0.755566,-2.573008,-2.529298,-2.710515,-2.72797,-1.873639,-2.556757,-2.480363,-2.216284,-2.34793,-3.208713,-2.841149,-2.666284,-3.585799,-4.370566,-3.290257,-3.81092,-1.47366,-3.276647,-4.782329,-3.615263,-2.753922,-1.726448,-0.922859,-0.463276,-2.185097,-2.227661,-3.163898,-1.597265,-0.9072,-1.181085,-0.932634,-0.924602,-1.96513,-2.064466,-1.468869,-0.264547,-0.770701,-2.952636,-1.640605,-1.678085,-0.483045,-0.422753,-2.093717,-3.115851,-0.35108,-1.396312,0.242062,-0.646043,-0.316997,0.33129,0.590923,-0.298003,-0.446036,-0.031923,0.244424,0.88986,0.911253,1.633205,1.26115,1.255306,0.527977,1.097909,2.276483,0.070784,-0.786813,1.347868,1.047588,0.18651,0.993066,1.29363,1.833035,2.165012,-0.197463
1b_b3016,0.008541,2.00979,-2.708311,-3.461449,-4.519285,-4.904825,-4.49527,-0.047802,-2.613168,-3.374594,-3.988735,-4.709534,-3.674111,-1.740089,-2.781245,-3.758004,-3.606568,-3.383663,-4.035305,-3.511238,-1.501708,-2.477133,-3.209145,-3.665793,-3.603148,-2.329469,-3.117093,-3.724289,-4.578085,-4.005592,-4.29255,-1.876629,-2.632268,-3.403086,-2.113268,-4.423748,-4.946232,0.183163,2.677223,-0.580891,-0.823445,-0.034018,0.196225,1.161888,1.52427,0.18617,0.44252,-3.606568,-1.239243,3.463832,2.345084,0.45447,-1.745764,-1.070974,-2.226344,7.08506,3.454317,4.633929,3.815294,1.810619,4.12559,2.803521,4.398175,6.34039,4.115831,4.240345,3.534778,3.38308,6.30905,5.388614,4.107392,3.000225,4.173598,5.018518,3.709142,3.281627,2.608941,1.253224,-1.224168,-4.105313,3.858356,4.119524,4.506453,5.081769,2.618012,-1.690925,-3.022638,3.400363,5.69023,4.997406,4.611797,0.934032,-0.632472,6.411515,5.79002,5.598545,2.462758,0.154093,3.840972,4.685925,3.14255,-0.027805,-1.075585,-3.318333,-3.289094,-3.926364,3.165914,1.640627,-1.318654,-4.282737,-4.407827,-3.593161,2.152624,-4.210114,1.493408,-3.759621,-3.626405,-2.75953,1.032375,2.113339,0.50156,-1.867362,-2.841914,-2.22295,0.909117,-4.674464,1.405311,0.460655,-3.606568
1b_b3021,-0.180074,1.141752,3.094769,3.203605,3.386564,3.891708,3.974528,1.923236,2.759617,2.648227,2.912493,3.380261,3.362646,2.407579,2.768959,2.838049,1.603446,2.600426,3.109995,3.151546,2.315911,2.123029,2.179919,2.40079,1.556821,1.324831,1.564999,2.156317,2.43758,2.835408,3.699617,-0.830254,0.240509,0.201779,1.100192,2.250352,3.508269,-2.438197,-1.853422,-0.385781,0.975481,1.812558,-3.146579,-4.084396,-3.600464,-0.870403,0.103779,-4.737813,-4.637791,-4.80853,-1.924665,0.575192,2.981555,3.800153,4.306052,-5.537199,-7.036957,-6.720166,-0.843826,1.840794,2.875234,3.88144,-8.000859,-10.558459,-6.850144,-0.362155,3.340665,-8.020609,-10.397677,-5.079643,1.625578,3.101664,-7.536125,-6.5882,-0.196389,2.990713,3.193947,3.97003,4.104465,4.229926,-6.821153,-4.493869,1.022634,2.63832,4.228665,4.396528,4.208699,-6.213781,-5.915838,-0.518281,2.125445,2.47218,3.20997,-6.800548,-7.663689,-2.582476,1.21271,1.904995,-7.227412,-6.04151,-2.64292,0.622229,1.79172,3.16067,3.597784,4.348542,-6.195483,-1.461516,0.150449,2.205385,3.341457,3.893886,-4.048584,-2.373041,-0.786284,1.248072,2.13624,3.624161,-3.207626,-2.040218,-1.478858,0.675776,1.607846,2.745737,-1.371367,-1.243658,-2.041356,-2.545217,4.6064
1b_b3022,-0.90356,3.057609,2.106203,3.151922,2.541987,0.307499,0.105653,6.496603,4.702377,2.820088,0.847564,-1.937681,-0.432251,1.954525,3.515996,3.224596,1.440387,0.121617,-0.053155,-1.832974,0.165027,-0.856574,-1.775031,-2.107234,-1.584365,-3.150609,-1.927692,-1.265499,-0.395092,0.318666,-0.837185,-1.806187,-2.211325,-1.580675,0.933502,0.88113,0.154617,-2.777795,-1.999541,0.283812,0.699418,0.473561,0.725664,0.859806,-0.025186,0.113467,0.243343,0.537166,0.445921,-0.293326,-0.472765,-0.292773,0.112261,1.226924,1.291551,-0.854082,-1.051553,-0.326641,0.188452,0.204174,1.232828,0.954699,0.252911,-0.446533,0.585961,0.182024,1.723948,0.512143,0.806351,2.527112,1.765308,0.154345,2.420852,2.577146,0.265311,0.024327,-1.389295,2.552978,0.464667,1.970351,0.386656,0.553586,-0.555991,-3.191236,-1.426807,0.090356,1.431113,-0.996733,-1.649232,-5.268245,-3.370038,-0.001471,0.702376,-2.152073,-3.391002,-3.418862,-0.262039,0.275757,-3.404638,-2.592458,-1.53093,-0.379088,0.246202,0.319126,1.396722,1.318225,-1.720322,-0.179408,0.322767,0.208491,0.554837,1.406364,-3.078907,-3.083754,0.029737,1.075995,1.603355,1.918912,-3.568565,-2.42836,-0.888387,1.301303,2.400022,1.887654,0.652544,-1.436118,-1.839935,-1.379382,0.47211
1b_b3024,1.771911,3.049044,2.854065,3.881701,2.826132,2.577396,2.019272,2.502247,3.326386,2.848368,2.393457,2.005224,1.944515,1.836733,1.939209,2.31547,1.630657,1.771223,1.658779,1.214613,1.4269,0.874292,1.0078,1.535593,-0.035914,-0.328731,-0.120323,0.934218,0.488286,1.019705,2.847461,-0.920217,1.198903,-0.219963,0.560378,1.082394,1.857621,-2.076459,-1.460976,-0.641798,-0.057839,-0.293116,-1.804868,-2.656096,-3.99551,-1.944646,-1.469727,-5.755368,-3.851921,-6.347054,-3.521762,-1.459298,0.326318,2.316336,3.484558,-6.033058,-7.69046,-9.776639,-4.577457,-0.982445,2.094358,0.933967,-7.047028,-7.587554,-8.981239,-4.251737,0.347045,-7.307352,-5.880665,-5.16428,-1.032942,1.305365,-5.935295,-4.290368,-0.983928,1.098113,1.564639,3.383744,3.145778,3.298937,-3.915133,-3.834189,-3.58345,1.637126,3.014517,3.471311,3.151067,-3.569429,-3.903191,-2.778803,2.00357,3.330931,2.79482,-2.792063,-3.388795,-1.514161,1.197536,2.500168,-2.388213,-0.133812,-0.640884,1.890112,2.743906,2.455992,3.182855,3.346242,-1.22343,0.639682,2.400801,2.560074,3.150066,3.081936,0.753302,1.023695,1.933435,2.048316,2.97751,3.28578,1.264777,1.014692,1.260391,2.11388,3.258942,3.457369,1.781114,1.833384,-1.963548,-1.894722,2.94944
1b_b3029,-0.91524,1.173753,2.850524,2.006044,3.142116,3.035117,1.650549,3.554888,5.709382,3.981347,4.562742,3.851111,1.94746,7.612939,6.16192,5.121459,6.145041,5.07263,4.104825,2.337236,6.935064,5.672887,4.169688,2.679902,4.686783,4.055681,2.371411,1.958178,0.894201,0.811641,0.992323,2.175373,0.889772,0.641215,0.644252,0.360912,0.952571,-0.386372,-1.296201,-0.772032,-0.473297,-0.505381,-0.795899,-1.729217,-1.798836,-1.494909,-1.201669,-2.849237,-1.936701,-3.792093,-1.969111,-0.898192,-0.442178,0.155413,0.922787,-4.638682,-4.665458,-2.571192,-3.009413,-1.197273,-0.280217,-0.722949,-1.901649,-1.984349,-1.97999,-2.188166,-1.324084,-1.446861,-1.718511,-2.43646,-2.153623,-1.295209,-1.044926,-1.197634,-1.674682,-1.247598,-1.367576,-0.687553,0.578026,1.545544,-1.095297,-1.585818,-1.392438,-1.504547,-1.553573,-0.312223,0.904793,-1.26448,-1.619097,-1.128782,-3.858699,-2.092294,-0.695482,-1.292359,-2.178256,-3.303038,-2.910396,-2.268316,-1.460313,-1.971934,-2.348136,-2.968795,-1.732039,0.594128,1.333234,1.959532,-1.922232,-3.234307,-1.540133,-0.668021,1.363956,2.685204,-2.611105,-1.924596,-2.977247,-0.698261,1.037315,2.419979,-2.921737,-2.119082,-1.85159,-1.06043,1.006952,1.936964,-1.527713,-1.400693,-0.948868,-0.948241,1.524427
1b_b3030,-2.578585,-1.294539,-0.08699,-0.029409,0.295869,1.376781,1.641362,-1.532539,-0.822956,-0.282147,1.301028,1.191765,1.210764,-1.58224,-0.268326,0.428737,-1.658527,0.494783,0.707838,0.485817,-0.757751,0.092026,0.167754,0.062738,-0.837316,-0.685244,-0.193784,0.334861,1.01173,0.977231,0.622826,-2.229569,-0.123295,0.221506,0.877661,1.029954,1.851922,-1.956991,-2.167863,0.449303,0.506561,0.447427,-0.074564,-0.037234,-0.367402,-0.074476,-0.016425,-0.032707,-1.744017,-4.537918,-2.144778,-1.623995,-0.114367,-0.068164,1.840142,-1.637817,-1.615456,-1.490026,-1.204445,-0.657935,-0.051154,1.317163,-1.940707,-1.477109,-0.684956,-0.59246,-0.807631,-1.278672,-1.172614,-0.848959,-0.887623,0.957793,0.172499,0.155161,0.722379,1.104588,1.054654,1.746415,1.754564,1.779371,0.66613,1.07581,0.98531,1.548019,1.320021,1.965903,1.296971,0.819847,1.194868,1.455825,1.336976,0.99705,0.704545,1.242275,1.423717,1.318108,0.927422,0.672444,1.48877,0.387853,0.341234,0.370661,0.471616,0.893438,0.421348,1.01075,-0.223119,0.260739,0.161322,0.639792,0.365569,1.750772,-0.744301,-1.203475,-0.222664,-0.056187,0.000008,0.226813,-3.479294,-1.814067,-1.94839,-1.676406,-0.281087,-0.163778,2.251791,-2.419068,-2.398494,-1.686613,2.201932
1b_b3031,3.19793,4.118617,3.616701,3.364032,2.356231,2.736625,0.610787,3.295692,3.457027,3.458563,4.228259,5.703702,-0.889617,4.255934,4.543634,4.044447,4.056427,1.242129,1.681563,0.085428,4.798598,2.141114,1.740365,-0.230074,2.139497,0.75995,-0.004382,3.917645,-1.9082,-4.126721,-2.8022,1.390991,-0.463342,0.227617,-1.096893,-4.399214,-2.413821,0.351506,0.018837,-1.060598,-5.776796,-2.201448,-0.699174,-0.550849,-0.201111,-1.796149,-2.259133,-2.38268,-4.198132,-1.925789,-2.486944,-2.822652,-3.777216,-2.544648,-1.434345,-1.709917,-1.990701,-1.895077,-3.091611,-1.42629,-2.973717,-3.743798,-2.994525,-3.331449,-3.306928,-2.999277,-2.443195,-1.678564,-3.823534,-3.575735,-2.401968,-3.846624,-3.082345,-2.86393,-2.935977,-3.138927,-3.602136,-2.14788,-0.601881,0.65168,-3.590125,-3.317361,-4.347881,-2.043153,-2.649771,-0.273028,1.124302,-3.191775,-3.466134,-2.525968,-1.130758,-1.60186,1.211613,-2.089149,-1.772978,-1.10585,4.783282,3.294771,-0.81352,10.007684,8.793556,3.623583,3.029797,0.770917,1.946859,2.34112,2.011999,0.710931,0.486387,1.244936,2.15334,1.489152,-0.378894,0.659985,1.887064,1.705335,1.841488,2.444951,2.447925,2.163395,1.396689,2.01822,2.32754,2.444131,1.900674,1.111317,0.798263,1.204301,0.789281
1b_b3032,1.97448,3.330338,4.108027,3.445483,2.943082,3.127107,3.008291,3.224755,3.06043,2.996113,3.701072,3.187016,3.65901,3.95469,3.306776,3.040738,4.427961,3.399437,3.743715,2.648188,4.30035,3.960987,3.7869,2.498089,3.59585,3.147809,2.92739,3.406147,2.498456,2.32337,3.263682,1.300694,2.584022,2.839376,2.694393,2.41562,1.890282,0.257657,0.44899,1.14352,1.661725,1.68588,-1.351457,-1.195793,-2.697646,-0.150792,1.259095,-2.903273,-5.199659,-5.830668,-2.983611,0.609093,0.613768,2.425653,2.541103,-4.01698,-6.131282,-7.468398,-3.790738,0.339571,2.100829,1.869515,-4.468409,-7.345761,-9.522859,-5.872679,0.159323,-5.085509,-6.284611,-5.75473,-1.203271,-0.784929,-5.091413,-4.707807,-2.138779,-1.32128,-0.216196,2.112593,2.849706,2.712264,-6.006621,-4.94938,-5.951405,-5.292935,0.121602,2.47037,2.880505,-5.700825,-6.293019,-9.412765,-2.820256,1.303611,2.580027,-5.77571,-5.205695,-6.211581,-0.839681,2.446411,-3.855191,-5.08212,-2.439416,1.01348,2.513173,3.00884,2.769163,2.653541,-3.869756,-0.360169,1.252201,2.637156,2.577929,2.746994,-2.821182,-0.685118,1.332289,1.547145,2.766085,2.180276,-1.098877,-0.402503,-0.149733,1.689414,2.441596,2.885026,-0.353841,0.234193,-2.049473,-0.222381,2.80672
1b_b3037,-0.150153,2.88489,1.160371,2.158471,2.20272,2.178124,2.235065,6.277741,3.450514,2.99378,1.949057,0.521328,1.845699,2.411582,2.207811,2.85548,2.642151,1.768425,0.369221,1.732594,4.422487,1.219808,0.710185,0.852355,0.323795,-0.470362,-1.122474,1.627029,1.774379,1.738504,3.659134,-2.624655,-1.579063,-0.83231,2.282506,2.347965,3.377128,-2.726134,-1.744551,0.76425,1.493747,2.443141,-4.713651,-4.132156,-1.05351,-0.555995,0.209506,-8.102886,-4.511559,-2.630833,0.886295,1.752787,3.197082,4.806004,4.221683,-7.171504,-5.34934,2.54342,1.884156,2.632133,3.912631,3.291356,-8.130205,-5.15795,0.303688,2.07422,3.440616,-8.744581,-6.675051,-0.731714,4.36058,3.852459,-7.493656,-5.828012,-1.217679,2.1619,1.555046,4.893624,4.907155,2.778192,-6.717098,-4.938958,-1.263981,0.116856,2.073823,4.123405,3.622259,-9.596841,-7.86321,-0.771591,1.93151,1.890534,3.30658,-9.4002,-6.344758,0.637263,1.083593,2.575459,-10.556727,-9.355248,-2.570016,2.106125,-0.202011,3.258178,3.316972,2.730206,-7.544986,-1.29371,1.853056,3.316934,3.209216,2.551524,-1.461903,-3.942044,-2.006536,2.096689,3.820382,2.664252,-3.713684,-3.004616,1.752977,0.767669,2.815032,3.042956,-0.499356,-3.094655,-4.150675,-1.220035,1.7534
1b_b3039,2.571434,4.241148,2.79247,2.059425,2.101629,2.394286,2.102411,4.583393,3.780982,3.764383,2.432767,1.933497,2.490442,-2.194097,4.283092,3.049495,-0.142247,2.683486,3.05941,2.746916,0.329783,2.433455,2.488707,1.271759,-1.694347,2.502248,0.851931,1.302781,0.708278,0.523974,3.176974,1.731581,1.198232,1.094537,1.432635,1.698856,1.316543,-0.373011,0.743173,-0.573871,0.600011,-0.910779,-0.218166,0.282041,1.110118,-0.061022,0.291745,4.114581,-0.26396,-1.786887,-2.504401,-0.624635,0.095199,3.379852,1.980008,-0.201232,-1.659535,-4.083392,-3.88525,-0.966703,0.380424,-3.309441,-2.720116,-1.640451,-2.881117,-2.473278,-2.099617,-1.423342,-1.818858,-3.23682,-2.483662,-2.918679,-1.085848,-1.127983,-2.703946,-4.596816,-2.692656,-0.37027,-0.895662,0.245124,0.658682,-0.421235,-3.74257,-6.287378,-1.884395,-0.2102,0.306864,-2.204336,-3.728807,-6.209743,-3.010675,-0.630154,0.283277,-3.582111,-5.185084,-4.188154,-2.749012,-0.470248,-2.018908,-3.861355,-3.722385,-1.267406,0.955087,-0.212645,2.788771,2.618553,-2.105756,-1.672727,2.037366,0.854261,2.505079,1.59655,-0.012926,-0.657059,0.643574,1.641383,2.83221,1.866671,-1.612201,-1.859978,1.507909,1.9181,4.040583,2.955466,0.520587,0.947866,0.630428,-0.300807,1.965871